# Instrument-source: 'mcstasscript_soleil_rock_111.instr'
# Date: Fri Jan 27 10 04 2023
# Ncount: 10000000
# Numpoints: 1101
# Param: Etohit = 9300
# type: multiarray_1d(1101)
# title: Scan of Etohit
# xlabel: 'Etohit'
# ylabel: 'Intensity'
# xvars: Etohit
# yvars: (EnergyMonitor_before_sample_I,EnergyMonitor_before_sample_ERR) (e_repartition_after_m2b_I,e_repartition_after_m2b_ERR) (EnergyMonitor_after_sample_I,EnergyMonitor_after_sample_ERR) (psd_monitor_I,psd_monitor_ERR) (absorption_coefficient_I,absorption_coefficient_ERR)
# xlimits: 10400 9300
# filename: mccode.dat
# variables: Etohit EnergyMonitor_before_sample_I EnergyMonitor_before_sample_ERR e_repartition_after_m2b_I e_repartition_after_m2b_ERR EnergyMonitor_after_sample_I EnergyMonitor_after_sample_ERR psd_monitor_I psd_monitor_ERR absorption_coefficient_I absorption_coefficient_ERR
9300 4.36656E+9 2.39019E+6 4.36656E+9 2.39019E+6 2.93595E+8 160709 2.76627E+8 155996 2.69953 0.0330873
9301 4.36087E+9 2.38711E+6 4.36087E+9 2.38711E+6 2.93462E+8 160639 2.76483E+8 155921 2.69868 0.0330876
9302 4.35661E+9 2.38437E+6 4.35661E+9 2.38437E+6 2.93424E+8 160591 2.7652E+8 155897 2.69783 0.0330847
9303 4.3486E+9 2.38066E+6 4.3486E+9 2.38066E+6 2.93134E+8 160477 2.76267E+8 155792 2.69698 0.0330894
9304 4.34155E+9 2.37704E+6 4.34155E+9 2.37704E+6 2.92907E+8 160369 2.75977E+8 155665 2.69613 0.033091
9305 4.33707E+9 2.37427E+6 4.33707E+9 2.37427E+6 2.92854E+8 160319 2.75988E+8 155635 2.69528 0.0330889
9306 4.33166E+9 2.37116E+6 4.33166E+9 2.37116E+6 2.92737E+8 160245 2.7592E+8 155575 2.69443 0.0330878
9307 4.32685E+9 2.36826E+6 4.32685E+9 2.36826E+6 2.9266E+8 160185 2.75831E+8 155510 2.69358 0.033086
9308 4.32104E+9 2.36508E+6 4.32104E+9 2.36508E+6 2.92516E+8 160106 2.75733E+8 155444 2.69273 0.033086
9309 4.31363E+9 2.36146E+6 4.31363E+9 2.36146E+6 2.92262E+8 159996 2.75386E+8 155308 2.69188 0.033089
9310 4.31124E+9 2.35928E+6 4.31124E+9 2.35928E+6 2.92349E+8 159985 2.75556E+8 155322 2.69103 0.0330829
9311 4.30008E+9 2.35472E+6 4.30008E+9 2.35472E+6 2.91839E+8 159812 2.75108E+8 155161 2.69018 0.0330938
9312 4.29447E+9 2.35139E+6 4.29447E+9 2.35139E+6 2.91707E+8 159721 2.74916E+8 155057 2.68933 0.033092
9313 4.29507E+9 2.35003E+6 4.29507E+9 2.35003E+6 2.91996E+8 159764 2.75242E+8 155114 2.68848 0.0330801
9314 4.285E+9 2.3457E+6 4.285E+9 2.3457E+6 2.91559E+8 159605 2.74798E+8 154949 2.68763 0.0330884
9315 4.27657E+9 2.3419E+6 4.27657E+9 2.3419E+6 2.91233E+8 159482 2.74539E+8 154843 2.68678 0.0330941
9316 4.28165E+9 2.34169E+6 4.28165E+9 2.34169E+6 2.91827E+8 159603 2.75081E+8 154956 2.68594 0.033073
9317 4.26671E+9 2.33588E+6 4.26671E+9 2.33588E+6 2.91055E+8 159343 2.74319E+8 154695 2.68509 0.0330898
9318 4.26576E+9 2.33412E+6 4.26576E+9 2.33412E+6 2.91238E+8 159358 2.74522E+8 154716 2.68424 0.033081
9319 4.25715E+9 2.3301E+6 4.25715E+9 2.3301E+6 2.90897E+8 159219 2.74165E+8 154573 2.68339 0.0330859
9320 4.25081E+9 2.3269E+6 4.25081E+9 2.3269E+6 2.90711E+8 159135 2.74136E+8 154533 2.68254 0.0330878
9321 4.24479E+9 2.32353E+6 4.24479E+9 2.32353E+6 2.90546E+8 159040 2.73942E+8 154429 2.68169 0.0330873
9322 4.23762E+9 2.3202E+6 4.23762E+9 2.3202E+6 2.90302E+8 158947 2.73723E+8 154344 2.68084 0.0330915
9323 4.23523E+9 2.31791E+6 4.23523E+9 2.31791E+6 2.90385E+8 158925 2.73811E+8 154323 2.67999 0.0330845
9324 4.22768E+9 2.31427E+6 4.22768E+9 2.31427E+6 2.90113E+8 158811 2.73533E+8 154207 2.67914 0.0330881
9325 4.22546E+9 2.31196E+6 4.22546E+9 2.31196E+6 2.90207E+8 158787 2.73587E+8 154171 2.67829 0.0330802
9326 4.21732E+9 2.30815E+6 4.21732E+9 2.30815E+6 2.89894E+8 158660 2.73389E+8 154077 2.67744 0.0330848
9327 4.21017E+9 2.30459E+6 4.21017E+9 2.30459E+6 2.89649E+8 158550 2.7321E+8 153986 2.67659 0.0330874
9328 4.2042E+9 2.30153E+6 4.2042E+9 2.30153E+6 2.89484E+8 158474 2.72991E+8 153894 2.67574 0.0330889
9329 4.19744E+9 2.29815E+6 4.19744E+9 2.29815E+6 2.89264E+8 158376 2.7276E+8 153793 2.67489 0.0330912
9330 4.1938E+9 2.29565E+6 4.1938E+9 2.29565E+6 2.89259E+8 158338 2.72844E+8 153781 2.67404 0.0330875
9331 4.18763E+9 2.29224E+6 4.18763E+9 2.29224E+6 2.89079E+8 158237 2.72654E+8 153676 2.67319 0.0330873
9332 4.18523E+9 2.29003E+6 4.18523E+9 2.29003E+6 2.89159E+8 158219 2.72756E+8 153666 2.67234 0.0330808
9333 4.17837E+9 2.28665E+6 4.17837E+9 2.28665E+6 2.8893E+8 158119 2.72494E+8 153557 2.67149 0.0330835
9334 4.17128E+9 2.28303E+6 4.17128E+9 2.28303E+6 2.88685E+8 158003 2.72249E+8 153439 2.67064 0.0330854
9335 4.1628E+9 2.27922E+6 4.1628E+9 2.27922E+6 2.88343E+8 157874 2.72032E+8 153344 2.66979 0.0330914
9336 4.16081E+9 2.27703E+6 4.16081E+9 2.27703E+6 2.8845E+8 157856 2.72096E+8 153317 2.66894 0.0330834
9337 4.15343E+9 2.2735E+6 4.15343E+9 2.2735E+6 2.88183E+8 157746 2.71827E+8 153206 2.66809 0.0330872
9338 4.14618E+9 2.26987E+6 4.14618E+9 2.26987E+6 2.87925E+8 157627 2.71547E+8 153077 2.66724 0.0330896
9339 4.13984E+9 2.2667E+6 4.13984E+9 2.2667E+6 2.87729E+8 157541 2.71415E+8 153010 2.66639 0.0330918
9340 4.13626E+9 2.26419E+6 4.13626E+9 2.26419E+6 2.87724E+8 157501 2.7142E+8 152972 2.66554 0.0330878
9341 4.13079E+9 2.26102E+6 4.13079E+9 2.26102E+6 2.87589E+8 157414 2.71332E+8 152900 2.66469 0.0330865
9342 4.1249E+9 2.25794E+6 4.1249E+9 2.25794E+6 2.87422E+8 157333 2.71188E+8 152826 2.66385 0.0330876
9343 4.11864E+9 2.25466E+6 4.11864E+9 2.25466E+6 2.8723E+8 157238 2.70948E+8 152717 2.663 0.0330886
9344 4.11269E+9 2.25141E+6 4.11269E+9 2.25141E+6 2.87059E+8 157144 2.70757E+8 152617 2.66215 0.0330887
9345 4.1085E+9 2.24866E+6 4.1085E+9 2.24866E+6 2.8701E+8 157086 2.70752E+8 152570 2.6613 0.0330853
9346 4.10228E+9 2.24536E+6 4.10228E+9 2.24536E+6 2.86819E+8 156989 2.70591E+8 152484 2.66045 0.0330861
9347 4.09632E+9 2.2422E+6 4.09632E+9 2.2422E+6 2.86646E+8 156902 2.70365E+8 152380 2.6596 0.0330869
9348 4.08954E+9 2.23894E+6 4.08954E+9 2.23894E+6 2.86414E+8 156806 2.70206E+8 152305 2.65875 0.0330902
9349 4.08533E+9 2.23619E+6 4.08533E+9 2.23619E+6 2.86363E+8 156747 2.70111E+8 152235 2.6579 0.0330869
9350 4.07948E+9 2.23298E+6 4.07948E+9 2.23298E+6 2.86196E+8 156655 2.70028E+8 152166 2.65705 0.0330869
9351 4.0715E+9 2.22926E+6 4.0715E+9 2.22926E+6 2.85879E+8 156527 2.69725E+8 152039 2.6562 0.0330916
9352 4.0664E+9 2.22634E+6 4.0664E+9 2.22634E+6 2.85764E+8 156455 2.69668E+8 151984 2.65535 0.0330907
9353 4.0615E+9 2.22439E+6 4.0615E+9 2.22439E+6 2.85662E+8 156451 2.69592E+8 151984 2.6545 0.0330961
9354 4.05216E+9 2.2283E+6 4.05216E+9 2.2283E+6 2.85247E+8 156859 2.69173E+8 152355 2.65365 0.0331634
9355 4.01561E+9 2.26642E+6 4.01561E+9 2.26642E+6 2.82913E+8 159681 2.67029E+8 155072 2.6528 0.0335979
9356 3.89311E+9 2.40734E+6 3.89311E+9 2.40734E+6 2.74514E+8 169759 2.59109E+8 164826 2.65196 0.0351676
9357 3.65477E+9 2.68446E+6 3.65477E+9 2.68446E+6 2.57924E+8 189464 2.43414E+8 184035 2.65112 0.0383286
9358 3.40462E+9 2.95123E+6 3.40462E+9 2.95123E+6 2.40477E+8 208463 2.26871E+8 202621 2.65027 0.0416378
9359 3.34515E+9 3.00857E+6 3.34515E+9 3.00857E+6 2.36482E+8 212682 2.23055E+8 206739 2.64939 0.0424116
9360 3.52293E+9 2.81008E+6 3.52293E+9 2.81008E+6 2.49266E+8 198810 2.35192E+8 193160 2.64853 0.0399404
9361 3.77726E+9 2.50505E+6 3.77726E+9 2.50505E+6 2.67487E+8 177380 2.52558E+8 172278 2.64768 0.0364188
9362 3.93831E+9 2.29132E+6 3.93831E+9 2.29132E+6 2.79125E+8 162390 2.63501E+8 157698 2.64685 0.0341114
9363 3.99387E+9 2.21164E+6 3.99387E+9 2.21164E+6 2.83302E+8 156880 2.67472E+8 152399 2.646 0.0332793
9364 3.99987E+9 2.19226E+6 3.99987E+9 2.19226E+6 2.83969E+8 155638 2.68029E+8 151199 2.64515 0.0331084
9365 3.99597E+9 2.18718E+6 3.99597E+9 2.18718E+6 2.83933E+8 155410 2.68055E+8 151001 2.6443 0.0330861
9366 3.98924E+9 2.18365E+6 3.98924E+9 2.18365E+6 2.83696E+8 155291 2.67765E+8 150867 2.64345 0.0330873
9367 3.98311E+9 2.1803E+6 3.98311E+9 2.1803E+6 2.83501E+8 155184 2.67641E+8 150781 2.6426 0.0330873
9368 3.97763E+9 2.17737E+6 3.97763E+9 2.17737E+6 2.83351E+8 155108 2.67503E+8 150708 2.64175 0.0330879
9369 3.97119E+9 2.17401E+6 3.97119E+9 2.17401E+6 2.83133E+8 155000 2.67296E+8 150604 2.6409 0.0330891
9370 3.96609E+9 2.17107E+6 3.96609E+9 2.17107E+6 2.8301E+8 154922 2.67178E+8 150526 2.64005 0.033088
9371 3.96089E+9 2.16834E+6 3.96089E+9 2.16834E+6 2.82879E+8 154859 2.67009E+8 150453 2.63921 0.033089
9372 3.95699E+9 2.16583E+6 3.95699E+9 2.16583E+6 2.8284E+8 154811 2.67009E+8 150417 2.63836 0.0330861
9373 3.94915E+9 2.16236E+6 3.94915E+9 2.16236E+6 2.8252E+8 154694 2.66729E+8 150307 2.63751 0.0330923
9374 3.94911E+9 2.16086E+6 3.94911E+9 2.16086E+6 2.82757E+8 154718 2.66983E+8 150342 2.63666 0.033081
9375 3.94263E+9 2.15783E+6 3.94263E+9 2.15783E+6 2.82534E+8 154633 2.66762E+8 150255 2.63581 0.033085
9376 3.93861E+9 2.15533E+6 3.93861E+9 2.15533E+6 2.82485E+8 154584 2.66749E+8 150216 2.63496 0.0330827
9377 3.92802E+9 2.15086E+6 3.92802E+9 2.15086E+6 2.81965E+8 154395 2.66269E+8 150035 2.63411 0.0330928
9378 3.92757E+9 2.14953E+6 3.92757E+9 2.14953E+6 2.82172E+8 154431 2.66367E+8 150042 2.63326 0.0330845
9379 3.92279E+9 2.14674E+6 3.92279E+9 2.14674E+6 2.82069E+8 154362 2.66375E+8 150006 2.63241 0.0330832
9380 3.91961E+9 2.1445E+6 3.91961E+9 2.1445E+6 2.8208E+8 154332 2.66407E+8 149982 2.63156 0.0330794
9381 3.91231E+9 2.14119E+6 3.91231E+9 2.14119E+6 2.81793E+8 154224 2.66111E+8 149872 2.63071 0.0330846
9382 3.90687E+9 2.1383E+6 3.90687E+9 2.1383E+6 2.81641E+8 154147 2.66045E+8 149820 2.62986 0.0330853
9383 3.90071E+9 2.13524E+6 3.90071E+9 2.13524E+6 2.81436E+8 154058 2.65779E+8 149711 2.62901 0.0330877
9384 3.89897E+9 2.13333E+6 3.89897E+9 2.13333E+6 2.8155E+8 154050 2.65863E+8 149697 2.62816 0.0330803
9385 3.89035E+9 2.12971E+6 3.89035E+9 2.12971E+6 2.81166E+8 153919 2.65538E+8 149580 2.62731 0.0330888
9386 3.8911E+9 2.12839E+6 3.8911E+9 2.12839E+6 2.81459E+8 153955 2.65808E+8 149614 2.62646 0.0330753
9387 3.88619E+9 2.12563E+6 3.88619E+9 2.12563E+6 2.81342E+8 153886 2.65705E+8 149549 2.62561 0.0330748
9388 3.87564E+9 2.1215E+6 3.87564E+9 2.1215E+6 2.80817E+8 153717 2.65196E+8 149379 2.62476 0.0330875
9389 3.87385E+9 2.11967E+6 3.87385E+9 2.11967E+6 2.80927E+8 153716 2.65337E+8 149390 2.62391 0.0330809
9390 3.86684E+9 2.11633E+6 3.86684E+9 2.11633E+6 2.80656E+8 153604 2.65132E+8 149295 2.62306 0.0330848
9391 3.86366E+9 2.11413E+6 3.86366E+9 2.11413E+6 2.80664E+8 153574 2.6508E+8 149249 2.62221 0.0330812
9392 3.85729E+9 2.11103E+6 3.85729E+9 2.11103E+6 2.80439E+8 153480 2.64875E+8 149160 2.62136 0.0330842
9393 3.85132E+9 2.10792E+6 3.85132E+9 2.10792E+6 2.80244E+8 153384 2.64723E+8 149077 2.62051 0.0330855
9394 3.84663E+9 2.10538E+6 3.84663E+9 2.10538E+6 2.8014E+8 153329 2.64659E+8 149033 2.61966 0.0330857
9395 3.8415E+9 2.10246E+6 3.8415E+9 2.10246E+6 2.80004E+8 153247 2.64539E+8 148955 2.61881 0.0330848
9396 3.83687E+9 2.0999E+6 3.83687E+9 2.0999E+6 2.79905E+8 153190 2.64478E+8 148910 2.61796 0.0330846
9397 3.83368E+9 2.09771E+6 3.83368E+9 2.09771E+6 2.79909E+8 153161 2.64433E+8 148867 2.61711 0.0330811
9398 3.82764E+9 2.09459E+6 3.82764E+9 2.09459E+6 2.79706E+8 153063 2.64243E+8 148773 2.61626 0.0330826
9399 3.8232E+9 2.09198E+6 3.8232E+9 2.09198E+6 2.79619E+8 153002 2.64176E+8 148718 2.61542 0.0330812
9400 3.81788E+9 2.08919E+6 3.81788E+9 2.08919E+6 2.79467E+8 152928 2.64087E+8 148659 2.61457 0.033082
9401 3.81084E+9 2.08602E+6 3.81084E+9 2.08602E+6 2.79189E+8 152826 2.63776E+8 148549 2.61372 0.0330875
9402 3.80713E+9 2.08364E+6 3.80713E+9 2.08364E+6 2.79154E+8 152781 2.63785E+8 148514 2.61287 0.0330847
9403 3.8031E+9 2.08121E+6 3.8031E+9 2.08121E+6 2.79096E+8 152732 2.63752E+8 148473 2.61202 0.0330829
9404 3.80075E+9 2.0792E+6 3.80075E+9 2.0792E+6 2.7916E+8 152714 2.638E+8 148453 2.61117 0.0330771
9405 3.79072E+9 2.07505E+6 3.79072E+9 2.07505E+6 2.78661E+8 152539 2.63319E+8 148282 2.61032 0.0330878
9406 3.7838E+9 2.07181E+6 3.7838E+9 2.07181E+6 2.78388E+8 152431 2.63083E+8 148181 2.60947 0.0330922
9407 3.78129E+9 2.06977E+6 3.78129E+9 2.06977E+6 2.7844E+8 152410 2.63105E+8 148154 2.60862 0.0330869
9408 3.77843E+9 2.06764E+6 3.77843E+9 2.06764E+6 2.78466E+8 152383 2.6316E+8 148136 2.60777 0.0330824
9409 3.77714E+9 2.06595E+6 3.77714E+9 2.06595E+6 2.78608E+8 152388 2.63279E+8 148135 2.60692 0.0330745
9410 3.76813E+9 2.06215E+6 3.76813E+9 2.06215E+6 2.78179E+8 152236 2.62881E+8 147990 2.60607 0.0330835
9411 3.76336E+9 2.0595E+6 3.76336E+9 2.0595E+6 2.78063E+8 152170 2.62791E+8 147932 2.60522 0.0330832
9412 3.75931E+9 2.05683E+6 3.75931E+9 2.05683E+6 2.78E+8 152102 2.6276E+8 147873 2.60437 0.0330796
9413 3.75204E+9 2.05361E+6 3.75204E+9 2.05361E+6 2.77698E+8 151993 2.62431E+8 147756 2.60352 0.0330857
9414 3.74724E+9 2.05103E+6 3.74724E+9 2.05103E+6 2.77579E+8 151931 2.62397E+8 147720 2.60267 0.0330861
9415 3.74406E+9 2.04877E+6 3.74406E+9 2.04877E+6 2.77579E+8 151892 2.62393E+8 147678 2.60182 0.0330819
9416 3.74148E+9 2.0467E+6 3.74148E+9 2.0467E+6 2.77623E+8 151868 2.6246E+8 147663 2.60097 0.0330765
9417 3.73259E+9 2.04286E+6 3.73259E+9 2.04286E+6 2.77199E+8 151712 2.61995E+8 147494 2.60012 0.0330849
9418 3.72962E+9 2.04081E+6 3.72962E+9 2.04081E+6 2.77214E+8 151689 2.6208E+8 147489 2.59927 0.0330814
9419 3.72674E+9 2.03861E+6 3.72674E+9 2.03861E+6 2.77235E+8 151654 2.62061E+8 147444 2.59842 0.0330763
9420 3.71812E+9 2.03491E+6 3.71812E+9 2.03491E+6 2.7683E+8 151507 2.61701E+8 147310 2.59757 0.0330846
9421 3.71476E+9 2.03265E+6 3.71476E+9 2.03265E+6 2.76814E+8 151468 2.61716E+8 147279 2.59672 0.0330812
9422 3.7057E+9 2.02879E+6 3.7057E+9 2.02879E+6 2.76373E+8 151309 2.612E+8 147098 2.59587 0.0330902
9423 3.70502E+9 2.02739E+6 3.70502E+9 2.02739E+6 2.76558E+8 151332 2.61469E+8 147146 2.59502 0.0330817
9424 3.70047E+9 2.02459E+6 3.70047E+9 2.02459E+6 2.76453E+8 151252 2.61332E+8 147058 2.59417 0.0330792
9425 3.69299E+9 2.0213E+6 3.69299E+9 2.0213E+6 2.76129E+8 151134 2.61168E+8 146984 2.59332 0.0330857
9426 3.68938E+9 2.01898E+6 3.68938E+9 2.01898E+6 2.76093E+8 151089 2.61071E+8 146922 2.59248 0.033083
9427 3.68224E+9 2.01565E+6 3.68224E+9 2.01565E+6 2.75793E+8 150968 2.60795E+8 146807 2.59163 0.0330877
9428 3.6813E+9 2.01411E+6 3.6813E+9 2.01411E+6 2.75958E+8 150981 2.60896E+8 146804 2.59078 0.0330792
9429 3.67683E+9 2.01152E+6 3.67683E+9 2.01152E+6 2.75856E+8 150915 2.60921E+8 146774 2.58993 0.033078
9430 3.67159E+9 2.00875E+6 3.67159E+9 2.00875E+6 2.75698E+8 150836 2.60702E+8 146675 2.58908 0.0330789
9431 3.66252E+9 2.00493E+6 3.66252E+9 2.00493E+6 2.7525E+8 150676 2.60267E+8 146518 2.58823 0.0330883
9432 3.65739E+9 2.00218E+6 3.65739E+9 2.00218E+6 2.75098E+8 150598 2.60188E+8 146462 2.58738 0.0330888
9433 3.65737E+9 2.00085E+6 3.65737E+9 2.00085E+6 2.75331E+8 150626 2.60318E+8 146462 2.58653 0.0330779
9434 3.64587E+9 1.99636E+6 3.64587E+9 1.99636E+6 2.74698E+8 150416 2.59831E+8 146290 2.58568 0.0330928
9435 3.64103E+9 1.99367E+6 3.64103E+9 1.99367E+6 2.74567E+8 150341 2.59644E+8 146198 2.58483 0.0330925
9436 3.63864E+9 1.99183E+6 3.63864E+9 1.99183E+6 2.74619E+8 150329 2.59679E+8 146184 2.58398 0.0330881
9437 3.63797E+9 1.99017E+6 3.63797E+9 1.99017E+6 2.74802E+8 150332 2.59932E+8 146210 2.58313 0.0330773
9438 3.63113E+9 1.98691E+6 3.63113E+9 1.98691E+6 2.74519E+8 150213 2.59668E+8 146094 2.58228 0.0330814
9439 3.62602E+9 1.98423E+6 3.62602E+9 1.98423E+6 2.74366E+8 150138 2.59481E+8 146007 2.58143 0.0330823
9440 3.62427E+9 1.9825E+6 3.62427E+9 1.9825E+6 2.74466E+8 150135 2.59591E+8 146010 2.58058 0.0330758
9441 3.61386E+9 1.97821E+6 3.61386E+9 1.97821E+6 2.7391E+8 149937 2.59134E+8 145839 2.57973 0.0330877
9442 3.61161E+9 1.97637E+6 3.61161E+9 1.97637E+6 2.73972E+8 149926 2.59131E+8 145808 2.57888 0.0330826
9443 3.6054E+9 1.97333E+6 3.6054E+9 1.97333E+6 2.73734E+8 149822 2.58949E+8 145720 2.57803 0.0330855
9444 3.59973E+9 1.9705E+6 3.59973E+9 1.9705E+6 2.73536E+8 149734 2.5875E+8 145629 2.57718 0.0330878
9445 3.60077E+9 1.96942E+6 3.60077E+9 1.96942E+6 2.73848E+8 149779 2.5913E+8 145699 2.57633 0.033074
9446 3.58988E+9 1.96516E+6 3.58988E+9 1.96516E+6 2.73251E+8 149583 2.58452E+8 145475 2.57548 0.0330883
9447 3.58581E+9 1.96259E+6 3.58581E+9 1.96259E+6 2.73173E+8 149514 2.58446E+8 145427 2.57463 0.0330854
9448 3.58154E+9 1.96016E+6 3.58154E+9 1.96016E+6 2.7308E+8 149455 2.58355E+8 145371 2.57378 0.0330846
9449 3.57756E+9 1.95766E+6 3.57756E+9 1.95766E+6 2.73008E+8 149392 2.58376E+8 145333 2.57293 0.0330819
9450 3.57571E+9 1.95598E+6 3.57571E+9 1.95598E+6 2.73099E+8 149391 2.58371E+8 145306 2.57208 0.0330763
9451 3.57077E+9 1.95326E+6 3.57077E+9 1.95326E+6 2.72954E+8 149310 2.58259E+8 145236 2.57123 0.0330761
9452 3.56186E+9 1.94948E+6 3.56186E+9 1.94948E+6 2.72504E+8 149147 2.57922E+8 145101 2.57038 0.0330853
9453 3.55861E+9 1.9473E+6 3.55861E+9 1.9473E+6 2.72487E+8 149107 2.5783E+8 145041 2.56954 0.0330819
9454 3.5538E+9 1.94463E+6 3.5538E+9 1.94463E+6 2.7235E+8 149029 2.57718E+8 144971 2.56869 0.0330816
9455 3.54765E+9 1.94163E+6 3.54765E+9 1.94163E+6 2.7211E+8 148926 2.57499E+8 144871 2.56784 0.0330848
9456 3.53978E+9 1.93818E+6 3.53978E+9 1.93818E+6 2.71736E+8 148788 2.57092E+8 144723 2.56699 0.0330921
9457 3.53945E+9 1.93677E+6 3.53945E+9 1.93677E+6 2.71942E+8 148805 2.57345E+8 144757 2.56614 0.0330816
9458 3.53624E+9 1.93459E+6 3.53624E+9 1.93459E+6 2.71926E+8 148765 2.57282E+8 144703 2.56529 0.033078
9459 3.53249E+9 1.93227E+6 3.53249E+9 1.93227E+6 2.71869E+8 148712 2.57249E+8 144658 2.56444 0.0330757
9460 3.5201E+9 1.92759E+6 3.5201E+9 1.92759E+6 2.71146E+8 148478 2.56632E+8 144451 2.56359 0.0330937
9461 3.52026E+9 1.92626E+6 3.52026E+9 1.92626E+6 2.71389E+8 148502 2.568E+8 144456 2.56274 0.0330815
9462 3.51637E+9 1.92392E+6 3.51637E+9 1.92392E+6 2.71319E+8 148448 2.5679E+8 144418 2.56189 0.0330797
9463 3.51257E+9 1.92156E+6 3.51257E+9 1.92156E+6 2.71256E+8 148392 2.56733E+8 144365 2.56104 0.0330773
9464 3.50604E+9 1.91848E+6 3.50604E+9 1.91848E+6 2.70983E+8 148279 2.56439E+8 144246 2.56019 0.0330814
9465 3.50053E+9 1.91557E+6 3.50053E+9 1.91557E+6 2.70784E+8 148179 2.56291E+8 144160 2.55935 0.0330824
9466 3.49629E+9 1.91321E+6 3.49629E+9 1.91321E+6 2.70672E+8 148115 2.56197E+8 144100 2.55855 0.0330821
9467 3.49157E+9 1.91055E+6 3.49157E+9 1.91055E+6 2.7051E+8 148020 2.56008E+8 143997 2.5578 0.0330814
9468 3.48713E+9 1.90804E+6 3.48713E+9 1.90804E+6 2.70369E+8 147936 2.55847E+8 143910 2.55705 0.0330807
9469 3.48301E+9 1.90553E+6 3.48301E+9 1.90553E+6 2.70251E+8 147852 2.55774E+8 143838 2.5563 0.0330785
9470 3.4765E+9 1.90247E+6 3.4765E+9 1.90247E+6 2.69949E+8 147726 2.55524E+8 143724 2.55555 0.0330828
9471 3.47114E+9 1.89968E+6 3.47114E+9 1.89968E+6 2.69734E+8 147620 2.55307E+8 143618 2.5548 0.0330841
9472 3.46734E+9 1.89734E+6 3.46734E+9 1.89734E+6 2.69641E+8 147549 2.55277E+8 143564 2.55405 0.0330818
9473 3.46056E+9 1.8942E+6 3.46056E+9 1.8942E+6 2.69316E+8 147415 2.54869E+8 143407 2.5533 0.0330868
9474 3.45674E+9 1.89184E+6 3.45674E+9 1.89184E+6 2.6922E+8 147342 2.5487E+8 143361 2.55255 0.0330845
9475 3.45553E+9 1.89025E+6 3.45553E+9 1.89025E+6 2.69328E+8 147329 2.54981E+8 143352 2.5518 0.0330763
9476 3.44686E+9 1.88658E+6 3.44686E+9 1.88658E+6 2.68854E+8 147153 2.54557E+8 143188 2.55105 0.0330858
9477 3.44669E+9 1.88518E+6 3.44669E+9 1.88518E+6 2.69042E+8 147154 2.54776E+8 143200 2.5503 0.0330743
9478 3.44053E+9 1.88219E+6 3.44053E+9 1.88219E+6 2.68763E+8 147030 2.54521E+8 143080 2.54955 0.0330776
9479 3.43449E+9 1.87932E+6 3.43449E+9 1.87932E+6 2.68492E+8 146916 2.54269E+8 142973 2.5488 0.0330814
9480 3.42978E+9 1.87671E+6 3.42978E+9 1.87671E+6 2.68325E+8 146822 2.53993E+8 142847 2.54805 0.0330811
9481 3.42517E+9 1.87423E+6 3.42517E+9 1.87423E+6 2.68165E+8 146738 2.53943E+8 142794 2.5473 0.0330815
9482 3.42159E+9 1.87206E+6 3.42159E+9 1.87206E+6 2.68086E+8 146678 2.53842E+8 142727 2.54655 0.0330796
9483 3.41594E+9 1.86943E+6 3.41594E+9 1.86943E+6 2.67843E+8 146582 2.5368E+8 142656 2.5458 0.0330838
9484 3.41635E+9 1.86829E+6 3.41635E+9 1.86829E+6 2.68077E+8 146603 2.53921E+8 142681 2.54505 0.0330717
9485 3.40664E+9 1.86449E+6 3.40664E+9 1.86449E+6 2.67516E+8 146414 2.53374E+8 142493 2.5443 0.033085
9486 3.40619E+9 1.86422E+6 3.40619E+9 1.86422E+6 2.6768E+8 146503 2.5344E+8 142549 2.54356 0.0330849
9487 3.39137E+9 1.87856E+6 3.39137E+9 1.87856E+6 2.66715E+8 147741 2.52603E+8 143757 2.54281 0.0332844
9488 3.32783E+9 2.00701E+6 3.32783E+9 2.00701E+6 2.61913E+8 157969 2.48015E+8 153658 2.54206 0.0347309
9489 3.14858E+9 2.35958E+6 3.14858E+9 2.35958E+6 2.47988E+8 185866 2.34897E+8 180892 2.54133 0.0387157
9490 2.97762E+9 2.65714E+6 2.97762E+9 2.65714E+6 2.34702E+8 209447 2.22206E+8 203899 2.54056 0.0422465
9491 3.03633E+9 2.53955E+6 3.03633E+9 2.53955E+6 2.39515E+8 200308 2.26759E+8 194959 2.53979 0.0408986
9492 3.23767E+9 2.15541E+6 3.23767E+9 2.15541E+6 2.55587E+8 170135 2.42146E+8 165553 2.53904 0.0364882
9493 3.34799E+9 1.90661E+6 3.34799E+9 1.90661E+6 2.64492E+8 150618 2.50494E+8 146535 2.5383 0.0337482
9494 3.36756E+9 1.84886E+6 3.36756E+9 1.84886E+6 2.66236E+8 146169 2.5219E+8 142252 2.53756 0.0331367
9495 3.36727E+9 1.84209E+6 3.36727E+9 1.84209E+6 2.66413E+8 145743 2.52335E+8 141840 2.53681 0.0330774
9496 3.36004E+9 1.8388E+6 3.36004E+9 1.8388E+6 2.66041E+8 145592 2.52069E+8 141718 2.53606 0.0330834
9497 3.35545E+9 1.83634E+6 3.35545E+9 1.83634E+6 2.65876E+8 145506 2.51887E+8 141627 2.53531 0.0330838
9498 3.35326E+9 1.83461E+6 3.35326E+9 1.83461E+6 2.65902E+8 145478 2.51909E+8 141598 2.53456 0.0330791
9499 3.34896E+9 1.8323E+6 3.34896E+9 1.8323E+6 2.6576E+8 145404 2.5176E+8 141522 2.53381 0.0330795
9500 3.34495E+9 1.82991E+6 3.34495E+9 1.82991E+6 2.65641E+8 145323 2.51651E+8 141446 2.53306 0.0330777
9501 3.33989E+9 1.8275E+6 3.33989E+9 1.8275E+6 2.65438E+8 145241 2.51482E+8 141371 2.53231 0.0330809
9502 3.33526E+9 1.82499E+6 3.33526E+9 1.82499E+6 2.65269E+8 145150 2.51334E+8 141285 2.53156 0.0330812
9503 3.33486E+9 1.82378E+6 3.33486E+9 1.82378E+6 2.65436E+8 145163 2.51526E+8 141309 2.53081 0.0330722
9504 3.3268E+9 1.8203E+6 3.3268E+9 1.8203E+6 2.64993E+8 144994 2.51041E+8 141126 2.53006 0.0330806
9505 3.3215E+9 1.81775E+6 3.3215E+9 1.81775E+6 2.6477E+8 144900 2.50894E+8 141052 2.52931 0.0330838
9506 3.31762E+9 1.81539E+6 3.31762E+9 1.81539E+6 2.64658E+8 144820 2.50781E+8 140972 2.52856 0.0330817
9507 3.31455E+9 1.81344E+6 3.31455E+9 1.81344E+6 2.64612E+8 144773 2.50747E+8 140930 2.52781 0.0330791
9508 3.30961E+9 1.81094E+6 3.30961E+9 1.81094E+6 2.64416E+8 144682 2.50574E+8 140845 2.52706 0.033081
9509 3.30565E+9 1.80876E+6 3.30565E+9 1.80876E+6 2.64297E+8 144616 2.50458E+8 140778 2.52632 0.0330809
9510 3.29894E+9 1.80564E+6 3.29894E+9 1.80564E+6 2.63959E+8 144475 2.50125E+8 140639 2.52557 0.0330859
9511 3.29936E+9 1.80471E+6 3.29936E+9 1.80471E+6 2.6419E+8 144509 2.5029E+8 140654 2.52482 0.0330753
9512 3.29454E+9 1.80217E+6 3.29454E+9 1.80217E+6 2.64002E+8 144413 2.50217E+8 140591 2.52407 0.0330761
9513 3.28763E+9 1.79912E+6 3.28763E+9 1.79912E+6 2.63645E+8 144277 2.49815E+8 140442 2.52332 0.0330829
9514 3.28446E+9 1.79713E+6 3.28446E+9 1.79713E+6 2.63589E+8 144226 2.4983E+8 140411 2.52257 0.0330806
9515 3.27905E+9 1.79444E+6 3.27905E+9 1.79444E+6 2.63352E+8 144118 2.49593E+8 140302 2.52182 0.033083
9516 3.27686E+9 1.79275E+6 3.27686E+9 1.79275E+6 2.63374E+8 144090 2.49678E+8 140295 2.52107 0.0330785
9517 3.27411E+9 1.79073E+6 3.27411E+9 1.79073E+6 2.6335E+8 144035 2.49629E+8 140234 2.52032 0.0330737
9518 3.2683E+9 1.78801E+6 3.2683E+9 1.78801E+6 2.6308E+8 143925 2.494E+8 140132 2.51957 0.033078
9519 3.26268E+9 1.78539E+6 3.26268E+9 1.78539E+6 2.62824E+8 143822 2.49114E+8 140020 2.51882 0.0330822
9520 3.2596E+9 1.78342E+6 3.2596E+9 1.78342E+6 2.62773E+8 143771 2.491E+8 139980 2.51807 0.0330796
9521 3.25559E+9 1.7811E+6 3.25559E+9 1.7811E+6 2.62647E+8 143691 2.48957E+8 139896 2.51732 0.0330784
9522 3.24993E+9 1.77832E+6 3.24993E+9 1.77832E+6 2.62387E+8 143575 2.48736E+8 139790 2.51657 0.0330813
9523 3.24437E+9 1.77572E+6 3.24437E+9 1.77572E+6 2.62134E+8 143472 2.48521E+8 139697 2.51582 0.0330855
9524 3.24405E+9 1.77454E+6 3.24405E+9 1.77454E+6 2.62305E+8 143485 2.48664E+8 139704 2.51507 0.0330761
9525 3.23772E+9 1.77152E+6 3.23772E+9 1.77152E+6 2.61989E+8 143348 2.48363E+8 139571 2.51432 0.0330802
9526 3.23439E+9 1.76951E+6 3.23439E+9 1.76951E+6 2.61916E+8 143292 2.48267E+8 139508 2.51357 0.0330785
9527 3.22932E+9 1.76695E+6 3.22932E+9 1.76695E+6 2.61701E+8 143192 2.48145E+8 139434 2.51282 0.0330805
9528 3.22645E+9 1.76502E+6 3.22645E+9 1.76502E+6 2.61665E+8 143143 2.48106E+8 139385 2.51207 0.0330771
9529 3.2196E+9 1.76197E+6 3.2196E+9 1.76197E+6 2.61305E+8 143003 2.47797E+8 139257 2.51132 0.0330836
9530 3.21803E+9 1.7604E+6 3.21803E+9 1.7604E+6 2.61374E+8 142983 2.4783E+8 139228 2.51057 0.033077
9531 3.21243E+9 1.75785E+6 3.21243E+9 1.75785E+6 2.61114E+8 142882 2.4757E+8 139126 2.50982 0.0330818
9532 3.20901E+9 1.75571E+6 3.20901E+9 1.75571E+6 2.61032E+8 142816 2.47511E+8 139067 2.50907 0.0330792
9533 3.20548E+9 1.75361E+6 3.20548E+9 1.75361E+6 2.60941E+8 142752 2.47414E+8 139002 2.50833 0.0330777
9534 3.20177E+9 1.75138E+6 3.20177E+9 1.75138E+6 2.60834E+8 142677 2.47272E+8 138919 2.50758 0.0330758
9535 3.19473E+9 1.74837E+6 3.19473E+9 1.74837E+6 2.60455E+8 142538 2.46987E+8 138803 2.50683 0.0330837
9536 3.19118E+9 1.74623E+6 3.19118E+9 1.74623E+6 2.60361E+8 142471 2.46871E+8 138732 2.50608 0.0330819
9537 3.18627E+9 1.74377E+6 3.18627E+9 1.74377E+6 2.60156E+8 142377 2.46695E+8 138646 2.50533 0.0330841
9538 3.18417E+9 1.74204E+6 3.18417E+9 1.74204E+6 2.60179E+8 142342 2.46744E+8 138619 2.50458 0.0330785
9539 3.18138E+9 1.74009E+6 3.18138E+9 1.74009E+6 2.60146E+8 142290 2.4668E+8 138558 2.50383 0.0330745
9540 3.17594E+9 1.73754E+6 3.17594E+9 1.73754E+6 2.59896E+8 142188 2.46425E+8 138454 2.50308 0.0330786
9541 3.17134E+9 1.73512E+6 3.17134E+9 1.73512E+6 2.59714E+8 142096 2.46319E+8 138383 2.50233 0.0330795
9542 3.16677E+9 1.73268E+6 3.16677E+9 1.73268E+6 2.59534E+8 142003 2.46126E+8 138287 2.50158 0.0330801
9543 3.16343E+9 1.73067E+6 3.16343E+9 1.73067E+6 2.59455E+8 141944 2.46119E+8 138247 2.50083 0.0330782
9544 3.15921E+9 1.72835E+6 3.15921E+9 1.72835E+6 2.59304E+8 141861 2.45913E+8 138148 2.50008 0.0330782
9545 3.15457E+9 1.72593E+6 3.15457E+9 1.72593E+6 2.59117E+8 141768 2.45727E+8 138057 2.49933 0.0330793
9546 3.14905E+9 1.72318E+6 3.14905E+9 1.72318E+6 2.58857E+8 141648 2.45528E+8 137954 2.49858 0.0330819
9547 3.14647E+9 1.72139E+6 3.14647E+9 1.72139E+6 2.58839E+8 141607 2.45541E+8 137921 2.49783 0.0330783
9548 3.14128E+9 1.7189E+6 3.14128E+9 1.7189E+6 2.58606E+8 141508 2.45254E+8 137806 2.49708 0.0330816
9549 3.1392E+9 1.71722E+6 3.1392E+9 1.71722E+6 2.58628E+8 141476 2.45356E+8 137798 2.49633 0.0330764
9550 3.13337E+9 1.71444E+6 3.13337E+9 1.71444E+6 2.58341E+8 141353 2.45083E+8 137678 2.49558 0.0330804
9551 3.13048E+9 1.71253E+6 3.13048E+9 1.71253E+6 2.58297E+8 141301 2.45025E+8 137624 2.49483 0.0330772
9552 3.12583E+9 1.71009E+6 3.12583E+9 1.71009E+6 2.58107E+8 141206 2.44803E+8 137517 2.49408 0.0330782
9553 3.12588E+9 1.70897E+6 3.12588E+9 1.70897E+6 2.58304E+8 141219 2.45046E+8 137547 2.49333 0.0330671
9554 3.11699E+9 1.70544E+6 3.11699E+9 1.70544E+6 2.57762E+8 141033 2.44551E+8 137371 2.49258 0.03308
9555 3.11458E+9 1.70362E+6 3.11458E+9 1.70362E+6 2.57757E+8 140989 2.44521E+8 137322 2.49183 0.0330752
9556 3.1099E+9 1.7012E+6 3.1099E+9 1.7012E+6 2.57562E+8 140894 2.44359E+8 137234 2.49108 0.0330765
9557 3.10561E+9 1.69903E+6 3.10561E+9 1.69903E+6 2.574E+8 140819 2.44173E+8 137154 2.49033 0.0330782
9558 3.10136E+9 1.69656E+6 3.10136E+9 1.69656E+6 2.5724E+8 140720 2.44062E+8 137069 2.48959 0.0330769
9559 3.1E+9 1.69513E+6 3.1E+9 1.69513E+6 2.57321E+8 140707 2.44115E+8 137048 2.48884 0.0330701
9560 3.09086E+9 1.69145E+6 3.09086E+9 1.69145E+6 2.56754E+8 140507 2.43614E+8 136864 2.48809 0.033083
9561 3.08689E+9 1.68925E+6 3.08689E+9 1.68925E+6 2.56617E+8 140430 2.43432E+8 136773 2.48734 0.0330828
9562 3.08202E+9 1.68686E+6 3.08202E+9 1.68686E+6 2.56404E+8 140336 2.43272E+8 136695 2.48659 0.0330854
9563 3.07884E+9 1.68486E+6 3.07884E+9 1.68486E+6 2.56332E+8 140274 2.43273E+8 136655 2.48584 0.0330829
9564 3.07648E+9 1.68311E+6 3.07648E+9 1.68311E+6 2.56327E+8 140234 2.43244E+8 136609 2.48509 0.0330784
9565 3.07445E+9 1.68131E+6 3.07445E+9 1.68131E+6 2.5635E+8 140189 2.43278E+8 136569 2.48434 0.0330717
9566 3.06708E+9 1.67832E+6 3.06708E+9 1.67832E+6 2.55927E+8 140045 2.42863E+8 136424 2.48359 0.0330819
9567 3.06243E+9 1.67583E+6 3.06243E+9 1.67583E+6 2.55731E+8 139941 2.42662E+8 136319 2.48284 0.0330824
9568 3.06116E+9 1.67437E+6 3.06116E+9 1.67437E+6 2.55816E+8 139924 2.4281E+8 136323 2.48209 0.0330748
9569 3.05714E+9 1.67214E+6 3.05714E+9 1.67214E+6 2.55672E+8 139843 2.42654E+8 136236 2.48134 0.0330746
9570 3.05318E+9 1.66998E+6 3.05318E+9 1.66998E+6 2.55532E+8 139767 2.42522E+8 136163 2.48059 0.0330746
9571 3.04523E+9 1.66668E+6 3.04523E+9 1.66668E+6 2.55058E+8 139596 2.42093E+8 136001 2.47984 0.033085
9572 3.04477E+9 1.66539E+6 3.04477E+9 1.66539E+6 2.55211E+8 139592 2.42249E+8 136000 2.47909 0.0330747
9573 3.0378E+9 1.66235E+6 3.0378E+9 1.66235E+6 2.54818E+8 139442 2.4191E+8 135865 2.47834 0.0330824
9574 3.0369E+9 1.66108E+6 3.0369E+9 1.66108E+6 2.54933E+8 139439 2.4197E+8 135848 2.47759 0.0330746
9575 3.02891E+9 1.65772E+6 3.02891E+9 1.65772E+6 2.54453E+8 139262 2.41535E+8 135681 2.47684 0.0330847
9576 3.02998E+9 1.6569E+6 3.02998E+9 1.6569E+6 2.54733E+8 139297 2.41798E+8 135716 2.47609 0.0330707
9577 3.02319E+9 1.65393E+6 3.02319E+9 1.65393E+6 2.54354E+8 139152 2.41448E+8 135578 2.47534 0.0330782
9578 3.02032E+9 1.65208E+6 3.02032E+9 1.65208E+6 2.54303E+8 139100 2.41428E+8 135533 2.47459 0.0330753
9579 3.01367E+9 1.64904E+6 3.01367E+9 1.64904E+6 2.53933E+8 138949 2.41109E+8 135394 2.47384 0.0330813
9580 3.0088E+9 1.64662E+6 3.0088E+9 1.64662E+6 2.53712E+8 138849 2.40835E+8 135279 2.47309 0.0330838
9581 3.00621E+9 1.64477E+6 3.00621E+9 1.64477E+6 2.53685E+8 138797 2.40814E+8 135231 2.47234 0.0330794
9582 3.00387E+9 1.64312E+6 3.00387E+9 1.64312E+6 2.53677E+8 138762 2.40825E+8 135202 2.4716 0.0330757
9583 2.99764E+9 1.64021E+6 2.99764E+9 1.64021E+6 2.53341E+8 138620 2.40525E+8 135068 2.47085 0.0330807
9584 2.99184E+9 1.6375E+6 2.99184E+9 1.6375E+6 2.5304E+8 138494 2.40251E+8 134947 2.4701 0.0330854
9585 2.98955E+9 1.63579E+6 2.98955E+9 1.63579E+6 2.53036E+8 138454 2.40245E+8 134907 2.46935 0.0330808
9586 2.98776E+9 1.63425E+6 2.98776E+9 1.63425E+6 2.53074E+8 138427 2.40329E+8 134897 2.4686 0.0330752
9587 2.98244E+9 1.63161E+6 2.98244E+9 1.63161E+6 2.52813E+8 138307 2.40044E+8 134771 2.46785 0.0330779
9588 2.97756E+9 1.6292E+6 2.97756E+9 1.6292E+6 2.52588E+8 138207 2.39839E+8 134672 2.4671 0.0330806
9589 2.97548E+9 1.62754E+6 2.97548E+9 1.62754E+6 2.52601E+8 138168 2.39815E+8 134627 2.46635 0.0330752
9590 2.97201E+9 1.62555E+6 2.97201E+9 1.62555E+6 2.52496E+8 138104 2.39778E+8 134580 2.4656 0.0330743
9591 2.96758E+9 1.62328E+6 2.96758E+9 1.62328E+6 2.52308E+8 138014 2.39608E+8 134496 2.46485 0.0330759
9592 2.96247E+9 1.62094E+6 2.96247E+9 1.62094E+6 2.52063E+8 137918 2.39379E+8 134404 2.4641 0.0330804
9593 2.95956E+9 1.61903E+6 2.95956E+9 1.61903E+6 2.52005E+8 137859 2.39315E+8 134344 2.46335 0.0330772
9594 2.95673E+9 1.61731E+6 2.95673E+9 1.61731E+6 2.51953E+8 137816 2.39324E+8 134318 2.4626 0.0330755
9595 2.951E+9 1.61473E+6 2.951E+9 1.61473E+6 2.51653E+8 137700 2.39001E+8 134194 2.46185 0.0330811
9596 2.94896E+9 1.61317E+6 2.94896E+9 1.61317E+6 2.51667E+8 137670 2.3901E+8 134164 2.4611 0.0330766
9597 2.94201E+9 1.61022E+6 2.94201E+9 1.61022E+6 2.51262E+8 137521 2.38607E+8 134013 2.46035 0.0330853
9598 2.94226E+9 1.6093E+6 2.94226E+9 1.6093E+6 2.51472E+8 137546 2.38819E+8 134042 2.4596 0.0330745
9599 2.9368E+9 1.60679E+6 2.9368E+9 1.60679E+6 2.51194E+8 137434 2.38615E+8 133949 2.45885 0.0330794
9600 2.93274E+9 1.60469E+6 2.93274E+9 1.60469E+6 2.51034E+8 137357 2.38521E+8 133889 2.4581 0.0330806
9601 2.93162E+9 1.60339E+6 2.93162E+9 1.60339E+6 2.51126E+8 137349 2.38559E+8 133868 2.45735 0.0330736
9602 2.92688E+9 1.60109E+6 2.92688E+9 1.60109E+6 2.50909E+8 137254 2.38313E+8 133765 2.4566 0.0330765
9603 2.92701E+9 1.60015E+6 2.92701E+9 1.60015E+6 2.51108E+8 137277 2.38582E+8 133808 2.45585 0.0330661
9604 2.92025E+9 1.59716E+6 2.92025E+9 1.59716E+6 2.50716E+8 137123 2.38247E+8 133670 2.4551 0.0330734
9605 2.91506E+9 1.59477E+6 2.91506E+9 1.59477E+6 2.50458E+8 137021 2.37922E+8 133548 2.45435 0.0330781
9606 2.9109E+9 1.59262E+6 2.9109E+9 1.59262E+6 2.50288E+8 136939 2.37715E+8 133455 2.4536 0.0330794
9607 2.9083E+9 1.59085E+6 2.9083E+9 1.59085E+6 2.50252E+8 136888 2.37768E+8 133432 2.45286 0.0330757
9608 2.90433E+9 1.58882E+6 2.90433E+9 1.58882E+6 2.50098E+8 136816 2.37598E+8 133352 2.45211 0.0330772
9609 2.90145E+9 1.58699E+6 2.90145E+9 1.58699E+6 2.50037E+8 136761 2.37556E+8 133304 2.45136 0.0330746
9610 2.89753E+9 1.58495E+6 2.89753E+9 1.58495E+6 2.49886E+8 136688 2.37386E+8 133226 2.45061 0.0330757
9611 2.89203E+9 1.5824E+6 2.89203E+9 1.5824E+6 2.49594E+8 136568 2.37216E+8 133138 2.44988 0.0330805
9612 2.89047E+9 1.58092E+6 2.89047E+9 1.58092E+6 2.4964E+8 136538 2.37199E+8 133094 2.44915 0.0330739
9613 2.88438E+9 1.57829E+6 2.88438E+9 1.57829E+6 2.49294E+8 136410 2.3686E+8 132967 2.44843 0.0330813
9614 2.88101E+9 1.57636E+6 2.88101E+9 1.57636E+6 2.49183E+8 136341 2.36748E+8 132896 2.44771 0.0330803
9615 2.87832E+9 1.57465E+6 2.87832E+9 1.57465E+6 2.4913E+8 136292 2.36748E+8 132863 2.44699 0.0330779
9616 2.87376E+9 1.57248E+6 2.87376E+9 1.57248E+6 2.48914E+8 136203 2.36483E+8 132759 2.44627 0.0330813
9617 2.87368E+9 1.57138E+6 2.87368E+9 1.57138E+6 2.49088E+8 136205 2.36683E+8 132772 2.44554 0.0330701
9618 2.86663E+9 1.56838E+6 2.86663E+9 1.56838E+6 2.48656E+8 136044 2.36304E+8 132623 2.44482 0.0330792
9619 2.86374E+9 1.56665E+6 2.86374E+9 1.56665E+6 2.48584E+8 135992 2.36227E+8 132570 2.4441 0.0330777
9620 2.85927E+9 1.56443E+6 2.85927E+9 1.56443E+6 2.48376E+8 135897 2.3604E+8 132478 2.44338 0.03308
9621 2.85807E+9 1.56309E+6 2.85807E+9 1.56309E+6 2.48451E+8 135879 2.36101E+8 132458 2.44266 0.0330728
9622 2.85422E+9 1.56105E+6 2.85422E+9 1.56105E+6 2.48296E+8 135799 2.35966E+8 132385 2.44193 0.0330734
9623 2.84988E+9 1.55882E+6 2.84988E+9 1.55882E+6 2.48097E+8 135703 2.35731E+8 132278 2.44121 0.033075
9624 2.84639E+9 1.55691E+6 2.84639E+9 1.55691E+6 2.47972E+8 135635 2.35679E+8 132231 2.44049 0.033075
9625 2.84425E+9 1.55534E+6 2.84425E+9 1.55534E+6 2.47965E+8 135596 2.35639E+8 132183 2.43977 0.0330708
9626 2.83806E+9 1.55266E+6 2.83806E+9 1.55266E+6 2.47604E+8 135461 2.35381E+8 132075 2.43905 0.0330783
9627 2.83571E+9 1.55106E+6 2.83571E+9 1.55106E+6 2.47577E+8 135419 2.35312E+8 132021 2.43832 0.0330749
9628 2.83281E+9 1.54919E+6 2.83281E+9 1.54919E+6 2.47503E+8 135353 2.35233E+8 131956 2.4376 0.0330719
9629 2.82654E+9 1.54651E+6 2.82654E+9 1.54651E+6 2.47134E+8 135216 2.34889E+8 131824 2.43688 0.0330798
9630 2.82325E+9 1.54455E+6 2.82325E+9 1.54455E+6 2.47024E+8 135142 2.34842E+8 131768 2.43616 0.0330782
9631 2.82223E+9 1.54336E+6 2.82223E+9 1.54336E+6 2.47113E+8 135136 2.34909E+8 131756 2.43544 0.0330714
9632 2.81694E+9 1.54092E+6 2.81694E+9 1.54092E+6 2.46828E+8 135020 2.34686E+8 131658 2.43471 0.0330763
9633 2.8116E+9 1.53842E+6 2.8116E+9 1.53842E+6 2.46538E+8 134898 2.34376E+8 131529 2.43399 0.0330807
9634 2.81139E+9 1.53743E+6 2.81139E+9 1.53743E+6 2.46698E+8 134908 2.34479E+8 131527 2.43327 0.0330714
9635 2.80783E+9 1.53547E+6 2.80783E+9 1.53547E+6 2.46563E+8 134834 2.3441E+8 131470 2.43255 0.0330713
9636 2.80222E+9 1.53287E+6 2.80222E+9 1.53287E+6 2.46248E+8 134702 2.34104E+8 131338 2.43183 0.0330762
9637 2.80089E+9 1.53155E+6 2.80089E+9 1.53155E+6 2.46309E+8 134684 2.34189E+8 131327 2.4311 0.0330698
9638 2.79575E+9 1.52908E+6 2.79575E+9 1.52908E+6 2.46035E+8 134564 2.33879E+8 131196 2.43038 0.0330735
9639 2.79376E+9 1.52765E+6 2.79376E+9 1.52765E+6 2.46037E+8 134535 2.33882E+8 131170 2.42966 0.0330698
9640 2.78694E+9 1.52477E+6 2.78694E+9 1.52477E+6 2.45614E+8 134378 2.33523E+8 131029 2.42894 0.033079
9641 2.7842E+9 1.52298E+6 2.7842E+9 1.52298E+6 2.4555E+8 134318 2.33456E+8 130970 2.42822 0.033076
9642 2.77954E+9 1.52071E+6 2.77954E+9 1.52071E+6 2.45316E+8 134215 2.33224E+8 130864 2.42749 0.033079
9643 2.77665E+9 1.51899E+6 2.77665E+9 1.51899E+6 2.45237E+8 134160 2.33188E+8 130824 2.42677 0.0330775
9644 2.77407E+9 1.51734E+6 2.77407E+9 1.51734E+6 2.45186E+8 134111 2.3319E+8 130788 2.42605 0.0330749
9645 2.77106E+9 1.51554E+6 2.77106E+9 1.51554E+6 2.45097E+8 134048 2.33024E+8 130705 2.42533 0.0330731
9646 2.76647E+9 1.51327E+6 2.76647E+9 1.51327E+6 2.44868E+8 133944 2.32842E+8 130613 2.42461 0.0330758
9647 2.76437E+9 1.51172E+6 2.76437E+9 1.51172E+6 2.4486E+8 133903 2.32829E+8 130574 2.42388 0.0330714
9648 2.75748E+9 1.50889E+6 2.75748E+9 1.50889E+6 2.44425E+8 133749 2.32431E+8 130426 2.42316 0.0330817
9649 2.75595E+9 1.50743E+6 2.75595E+9 1.50743E+6 2.44466E+8 133716 2.32507E+8 130406 2.42244 0.0330748
9650 2.75145E+9 1.50525E+6 2.75145E+9 1.50525E+6 2.44244E+8 133619 2.32276E+8 130304 2.42172 0.0330779
9651 2.74797E+9 1.50328E+6 2.74797E+9 1.50328E+6 2.44111E+8 133541 2.32156E+8 130231 2.421 0.0330772
9652 2.74414E+9 1.50124E+6 2.74414E+9 1.50124E+6 2.43946E+8 133456 2.32017E+8 130152 2.42027 0.0330779
9653 2.73944E+9 1.49904E+6 2.73944E+9 1.49904E+6 2.43584E+8 133291 2.31695E+8 129997 2.42005 0.033082
9654 2.73808E+9 1.49766E+6 2.73808E+9 1.49766E+6 2.24416E+8 123388 2.13482E+8 120345 2.50151 0.0331179
9655 2.73617E+9 1.49615E+6 2.73617E+9 1.49615E+6 1.78555E+8 99098.8 1.69838E+8 96651.8 2.72942 0.0331935
9656 2.7307E+9 1.49365E+6 2.7307E+9 1.49365E+6 1.31892E+8 73223.9 1.25448E+8 71413.9 3.03033 0.0331989
9657 2.73039E+9 1.49266E+6 2.73039E+9 1.49266E+6 9.76148E+7 54164.3 9.28518E+7 52827.5 3.33117 0.0331898
9658 2.72375E+9 1.48983E+6 2.72375E+9 1.48983E+6 7.20559E+7 40003.4 6.85343E+7 39012.9 3.63232 0.0331987
9659 2.71898E+9 1.48753E+6 2.71898E+9 1.48753E+6 5.32389E+7 29563.2 5.06373E+7 28832 3.93322 0.0332022
9660 2.71836E+9 1.48634E+6 2.71836E+9 1.48634E+6 3.93877E+7 21859 3.74695E+7 21320.2 4.23433 0.0331926
9661 2.71309E+9 1.4839E+6 2.71309E+9 1.4839E+6 2.90921E+7 16149.8 2.76751E+7 15751.7 4.53538 0.0331974
9662 2.70885E+9 1.48186E+6 2.70885E+9 1.48186E+6 2.14965E+7 11935.7 2.04511E+7 11642.1 4.83639 0.0332007
9663 2.70462E+9 1.47972E+6 2.70462E+9 1.47972E+6 1.58849E+7 8821.04 1.5109E+7 8603.13 5.13735 0.0332027
9664 2.70185E+9 1.47798E+6 2.70185E+9 1.47798E+6 1.17438E+7 6520.44 1.1171E+7 6359.23 5.43836 0.0332001
9665 2.69845E+9 1.47609E+6 2.69845E+9 1.47609E+6 8.67939E+6 4818.98 8.25716E+6 4700.35 5.73948 0.0331999
9666 2.69366E+9 1.47373E+6 2.69366E+9 1.47373E+6 6.41244E+6 3560.88 6.1003E+6 3473.07 6.04042 0.0332027
9667 2.69264E+9 1.47258E+6 2.69264E+9 1.47258E+6 4.74394E+6 2633.29 4.51218E+6 2568.15 6.34141 0.033196
9668 2.6884E+9 1.47041E+6 2.6884E+9 1.47041E+6 3.50497E+6 1945.75 3.33481E+6 1897.93 6.64252 0.0331977
9669 2.68138E+9 1.46744E+6 2.68138E+9 1.46744E+6 2.587E+6 1436.98 2.46136E+6 1401.66 6.94359 0.0332075
9670 2.67993E+9 1.46608E+6 2.67993E+9 1.46608E+6 1.91383E+6 1062.65 1.82102E+6 1036.57 7.24444 0.033201
9671 2.67521E+9 1.4639E+6 2.67521E+9 1.4639E+6 1.41365E+6 785.151 1.34524E+6 765.927 7.54561 0.0332057
9672 2.6731E+9 1.46232E+6 2.6731E+9 1.46232E+6 1.04532E+6 580.404 994714 566.182 7.84667 0.0332008
9673 2.66884E+9 1.46018E+6 2.66884E+9 1.46018E+6 772490 428.981 735125 418.471 8.14753 0.0332031
9674 2.6689E+9 1.45924E+6 2.6689E+9 1.45924E+6 571823 317.339 544086 309.544 8.44835 0.0331921
9675 2.66246E+9 1.45659E+6 2.66246E+9 1.45659E+6 422077 234.376 401633 228.63 8.74957 0.033202
9676 2.6575E+9 1.45417E+6 2.6575E+9 1.45417E+6 311840 173.196 296740 168.951 9.05041 0.0332053
9677 2.65663E+9 1.45295E+6 2.65663E+9 1.45295E+6 230631 128.026 219522 124.905 9.35175 0.0331968
9678 2.65124E+9 1.45052E+6 2.65124E+9 1.45052E+6 170388 94.6166 162156 92.3023 9.65246 0.0332026
9679 2.6499E+9 1.44924E+6 2.6499E+9 1.44924E+6 126006 69.9468 119895 68.2284 9.9537 0.0331966
9680 2.64433E+9 1.4467E+6 2.64433E+9 1.4467E+6 93062.3 51.6771 88573.8 50.416 10.2547 0.0332023
9681 2.64056E+9 1.4447E+6 2.64056E+9 1.4447E+6 68786.6 38.1983 65461.1 37.2636 10.5555 0.0332029
9682 2.63842E+9 1.44321E+6 2.63842E+9 1.44321E+6 50858.1 28.2363 48403.3 27.5454 10.8566 0.0331994
9683 2.6314E+9 1.44027E+6 2.6314E+9 1.44027E+6 37535.9 20.853 35725.6 20.3434 11.1577 0.0332098
9684 2.62978E+9 1.43885E+6 2.62978E+9 1.43885E+6 27760.3 15.4162 26418.2 15.0392 11.4588 0.0332035
9685 2.6289E+9 1.43768E+6 2.6289E+9 1.43768E+6 20539.8 11.401 19550.4 11.1231 11.7597 0.0331956
9686 2.62644E+9 1.4361E+6 2.62644E+9 1.4361E+6 15190.5 8.43059 14458.7 8.22515 12.0605 0.033193
9687 2.62135E+9 1.43375E+6 2.62135E+9 1.43375E+6 11217.8 6.22743 10677.5 6.07548 12.3617 0.0331977
9688 2.61505E+9 1.43112E+6 2.61505E+9 1.43112E+6 8283 4.60099 7882.99 4.48855 12.6626 0.0332075
9689 2.61389E+9 1.42986E+6 2.61389E+9 1.42986E+6 6125.83 3.40116 5830.32 3.31806 12.9638 0.0332
9690 2.60851E+9 1.42748E+6 2.60851E+9 1.42748E+6 4525.26 2.51349 4307.86 2.45234 13.2646 0.0332066
9691 2.60827E+9 1.42659E+6 2.60827E+9 1.42659E+6 3348.23 1.85876 3187.26 1.81352 13.5658 0.0331978
9692 2.6054E+9 1.42494E+6 2.6054E+9 1.42494E+6 2474.9 1.37385 2356.31 1.34052 13.8669 0.0331969
9693 2.60256E+9 1.42326E+6 2.60256E+9 1.42326E+6 1829.87 1.01571 1741.92 0.99101 14.1678 0.0331955
9694 2.59837E+9 1.42119E+6 2.59837E+9 1.42119E+6 1351.93 0.750526 1286.72 0.732197 14.4689 0.033198
9695 2.59537E+9 1.41943E+6 2.59537E+9 1.41943E+6 999.28 0.5547 951.503 0.541276 14.77 0.0331965
9696 2.58997E+9 1.41707E+6 2.58997E+9 1.41707E+6 738.139 0.40991 702.722 0.399954 15.0708 0.0332034
9697 2.58794E+9 1.41566E+6 2.58794E+9 1.41566E+6 545.778 0.303024 519.555 0.295653 15.3719 0.0331999
9698 2.58575E+9 1.41419E+6 2.58575E+9 1.41419E+6 403.558 0.224019 384.231 0.218589 15.673 0.0331968
9699 2.58337E+9 1.41278E+6 2.58337E+9 1.41278E+6 298.403 0.165632 284.152 0.16163 15.9739 0.0331954
9700 2.57884E+9 1.41064E+6 2.57884E+9 1.41064E+6 220.449 0.122392 209.868 0.11942 16.2749 0.0331994
9701 2.57473E+9 1.40869E+6 2.57473E+9 1.40869E+6 162.89 0.0904558 155.087 0.0882625 16.5759 0.0332031
9702 2.57382E+9 1.40763E+6 2.57382E+9 1.40763E+6 120.516 0.0668958 114.745 0.0652742 16.8769 0.0331961
9703 2.56918E+9 1.40556E+6 2.56918E+9 1.40556E+6 89.024 0.0494332 84.7624 0.0482352 17.1779 0.0332019
9704 2.5688E+9 1.40461E+6 2.5688E+9 1.40461E+6 65.8828 0.0365635 62.7375 0.0356792 17.4788 0.0331929
9705 2.56487E+9 1.40273E+6 2.56487E+9 1.40273E+6 48.6778 0.0270202 46.3557 0.0263683 17.7799 0.0331961
9706 2.56237E+9 1.40126E+6 2.56237E+9 1.40126E+6 36.0148 0.0199863 34.2935 0.0195028 18.0803 0.0331935
9707 2.55859E+9 1.39935E+6 2.55859E+9 1.39935E+6 28.8816 0.0158566 27.4996 0.0154727 18.2995 0.033105
9708 2.55526E+9 1.39763E+6 2.55526E+9 1.39763E+6 27.1864 0.0148701 25.8909 0.0145113 18.3587 0.0330746
9709 2.55253E+9 1.39611E+6 2.55253E+9 1.39611E+6 27.3072 0.0149358 26.0035 0.0145749 18.3532 0.0330743
9710 2.55093E+9 1.39492E+6 2.55093E+9 1.39492E+6 27.4406 0.0150053 26.1302 0.0146425 18.3477 0.0330705
9711 2.54842E+9 1.39338E+6 2.54842E+9 1.39338E+6 27.5647 0.0150714 26.2505 0.0147077 18.3422 0.0330686
9712 2.54338E+9 1.39121E+6 2.54338E+9 1.39121E+6 27.662 0.015131 26.346 0.0147666 18.3367 0.0330755
9713 2.54142E+9 1.38983E+6 2.54142E+9 1.38983E+6 27.7931 0.0151993 26.4757 0.0148348 18.3312 0.0330718
9714 2.54105E+9 1.38897E+6 2.54105E+9 1.38897E+6 27.9423 0.0152737 26.621 0.0149083 18.3257 0.0330641
9715 2.53382E+9 1.38615E+6 2.53382E+9 1.38615E+6 28.0165 0.0153268 26.6811 0.014957 18.3202 0.0330775
9716 2.5306E+9 1.38447E+6 2.5306E+9 1.38447E+6 28.1352 0.0153926 26.8058 0.0150246 18.3147 0.0330785
9717 2.52976E+9 1.38345E+6 2.52976E+9 1.38345E+6 28.2811 0.0154661 26.9389 0.0150948 18.3092 0.0330718
9718 2.52705E+9 1.38186E+6 2.52705E+9 1.38186E+6 28.4065 0.0155336 27.0591 0.0151607 18.3037 0.0330706
9719 2.52472E+9 1.38042E+6 2.52472E+9 1.38042E+6 28.5368 0.0156028 27.1944 0.0152314 18.2982 0.0330685
9720 2.52085E+9 1.37861E+6 2.52085E+9 1.37861E+6 28.6502 0.0156684 27.2942 0.0152931 18.2927 0.0330722
9721 2.51688E+9 1.37664E+6 2.51688E+9 1.37664E+6 28.7629 0.0157323 27.3983 0.0153545 18.2872 0.0330746
9722 2.5156E+9 1.37549E+6 2.5156E+9 1.37549E+6 28.9068 0.0158059 27.5417 0.0154281 18.2817 0.0330692
9723 2.50993E+9 1.37311E+6 2.50993E+9 1.37311E+6 29.0009 0.0158656 27.629 0.0154859 18.2762 0.0330778
9724 2.5083E+9 1.37189E+6 2.5083E+9 1.37189E+6 29.1417 0.0159388 27.7639 0.0155575 18.2707 0.0330739
9725 2.50501E+9 1.37021E+6 2.50501E+9 1.37021E+6 29.264 0.016007 27.8862 0.0156258 18.2652 0.0330752
9726 2.50049E+9 1.36812E+6 2.50049E+9 1.36812E+6 29.3723 0.0160709 27.9864 0.015687 18.2597 0.0330799
9727 2.49878E+9 1.36684E+6 2.49878E+9 1.36684E+6 29.514 0.0161443 28.1242 0.0157595 18.2542 0.0330758
9728 2.49759E+9 1.3658E+6 2.49759E+9 1.3658E+6 29.6628 0.016221 28.2584 0.0158325 18.2487 0.0330711
9729 2.49412E+9 1.36392E+6 2.49412E+9 1.36392E+6 29.7849 0.016288 28.3842 0.0159005 18.2432 0.0330713
9730 2.49254E+9 1.36273E+6 2.49254E+9 1.36273E+6 29.9302 0.0163636 28.52 0.0159735 18.2377 0.0330674
9731 2.48693E+9 1.36035E+6 2.48693E+9 1.36035E+6 30.0274 0.0164251 28.6194 0.0160354 18.2322 0.0330757
9732 2.48642E+9 1.35949E+6 2.48642E+9 1.35949E+6 30.1869 0.0165052 28.7659 0.0161121 18.2267 0.0330686
9733 2.48105E+9 1.35718E+6 2.48105E+9 1.35718E+6 30.2878 0.0165681 28.863 0.0161739 18.2212 0.0330763
9734 2.4804E+9 1.35623E+6 2.4804E+9 1.35623E+6 30.4469 0.0166479 29.015 0.0162516 18.2157 0.0330691
9735 2.47733E+9 1.35459E+6 2.47733E+9 1.35459E+6 30.5769 0.0167194 29.1429 0.0163226 18.2102 0.0330695
9736 2.47249E+9 1.35241E+6 2.47249E+9 1.35241E+6 30.6856 0.0167845 29.2396 0.0163843 18.2047 0.0330752
9737 2.47146E+9 1.3514E+6 2.47146E+9 1.3514E+6 30.8419 0.0168644 29.3875 0.0164622 18.1992 0.0330697
9738 2.46875E+9 1.34981E+6 2.46875E+9 1.34981E+6 30.978 0.0169375 29.517 0.0165332 18.1937 0.0330683
9739 2.46336E+9 1.34753E+6 2.46336E+9 1.34753E+6 31.0808 0.0170021 29.6165 0.0165966 18.1882 0.0330765
9740 2.46222E+9 1.34646E+6 2.46222E+9 1.34646E+6 31.2378 0.0170823 29.7737 0.0166772 18.1827 0.0330711
9741 2.45781E+9 1.34444E+6 2.45781E+9 1.34444E+6 31.3539 0.0171509 29.882 0.0167435 18.1772 0.0330759
9742 2.4544E+9 1.34267E+6 2.4544E+9 1.34267E+6 31.4829 0.0172227 30.0117 0.0168155 18.1717 0.0330771
9743 2.45293E+9 1.34144E+6 2.45293E+9 1.34144E+6 31.6377 0.0173018 30.161 0.0168933 18.1662 0.0330718
9744 2.44835E+9 1.33948E+6 2.44835E+9 1.33948E+6 31.7527 0.0173718 30.265 0.0169601 18.1607 0.0330785
9745 2.44626E+9 1.33807E+6 2.44626E+9 1.33807E+6 31.9006 0.0174493 30.4094 0.0170366 18.1552 0.0330753
9746 2.44486E+9 1.33688E+6 2.44486E+9 1.33688E+6 32.0581 0.0175298 30.5549 0.0171139 18.1497 0.03307
9747 2.44018E+9 1.33485E+6 2.44018E+9 1.33485E+6 32.1733 0.0175997 30.6621 0.0171814 18.1442 0.0330765
9748 2.43792E+9 1.33338E+6 2.43792E+9 1.33338E+6 32.3206 0.0176773 30.8104 0.0172593 18.1387 0.0330737
9749 2.43632E+9 1.33221E+6 2.43632E+9 1.33221E+6 32.4777 0.0177592 30.958 0.0173388 18.1332 0.03307
9750 2.43173E+9 1.33014E+6 2.43173E+9 1.33014E+6 32.5952 0.0178295 31.0723 0.0174084 18.1277 0.0330755
9751 2.42976E+9 1.32877E+6 2.42976E+9 1.32877E+6 32.7484 0.0179093 31.2118 0.017484 18.1222 0.0330719
9752 2.42815E+9 1.32757E+6 2.42815E+9 1.32757E+6 32.9073 0.0179918 31.3688 0.0175661 18.1167 0.0330679
9753 2.42256E+9 1.32523E+6 2.42256E+9 1.32523E+6 33.0126 0.0180591 31.4702 0.0176322 18.1112 0.0330768
9754 2.42141E+9 1.32411E+6 2.42141E+9 1.32411E+6 33.1789 0.0181434 31.6238 0.0177131 18.1057 0.0330707
9755 2.41701E+9 1.32208E+6 2.41701E+9 1.32208E+6 33.3012 0.0182155 31.7549 0.0177875 18.1002 0.0330754
9756 2.41442E+9 1.32067E+6 2.41442E+9 1.32067E+6 33.449 0.0182964 31.8921 0.0178654 18.0947 0.0330754
9757 2.41136E+9 1.31902E+6 2.41136E+9 1.31902E+6 33.5908 0.0183743 32.0287 0.017942 18.0892 0.0330757
9758 2.40793E+9 1.31727E+6 2.40793E+9 1.31727E+6 33.7281 0.0184511 32.1599 0.0180171 18.0837 0.0330773
9759 2.40535E+9 1.31581E+6 2.40535E+9 1.31581E+6 33.8777 0.0185323 32.299 0.0180954 18.0782 0.0330767
9760 2.40494E+9 1.31492E+6 2.40494E+9 1.31492E+6 34.0588 0.0186219 32.4822 0.0181858 18.0727 0.0330683
9761 2.40085E+9 1.31302E+6 2.40085E+9 1.31302E+6 34.1883 0.0186976 32.5961 0.0182571 18.0672 0.0330726
9762 2.39886E+9 1.31164E+6 2.39886E+9 1.31164E+6 34.3483 0.018781 32.7549 0.0183402 18.0617 0.033069
9763 2.39408E+9 1.30952E+6 2.39408E+9 1.30952E+6 34.4691 0.0188541 32.8693 0.0184112 18.0562 0.0330752
9764 2.39075E+9 1.30777E+6 2.39075E+9 1.30777E+6 34.611 0.0189327 33.0067 0.0184887 18.0507 0.033076
9765 2.38969E+9 1.30675E+6 2.38969E+9 1.30675E+6 34.7863 0.0190222 33.1716 0.0185754 18.0452 0.0330705
9766 2.38512E+9 1.3047E+6 2.38512E+9 1.3047E+6 34.9114 0.0190971 33.2908 0.0186487 18.0397 0.0330761
9767 2.38372E+9 1.30349E+6 2.38372E+9 1.30349E+6 35.0833 0.0191846 33.4579 0.0187351 18.0342 0.0330705
9768 2.38111E+9 1.30208E+6 2.38111E+9 1.30208E+6 35.2381 0.0192695 33.6128 0.01882 18.0287 0.0330707
9769 2.3749E+9 1.29956E+6 2.3749E+9 1.29956E+6 35.34 0.0193383 33.7042 0.0188854 18.0232 0.0330819
9770 2.37371E+9 1.29842E+6 2.37371E+9 1.29842E+6 35.5171 0.019428 33.8654 0.018971 18.0177 0.0330757
9771 2.37143E+9 1.29704E+6 2.37143E+9 1.29704E+6 35.6787 0.0195144 34.03 0.0190583 18.0122 0.0330741
9772 2.37083E+9 1.29613E+6 2.37083E+9 1.29613E+6 35.8665 0.0196082 34.2139 0.0191513 18.0067 0.0330666
9773 2.36516E+9 1.29376E+6 2.36516E+9 1.29376E+6 35.9781 0.0196804 34.313 0.0192196 18.0012 0.033076
9774 2.36326E+9 1.29244E+6 2.36326E+9 1.29244E+6 36.1473 0.0197687 34.4789 0.019307 17.9957 0.0330724
9775 2.36044E+9 1.29089E+6 2.36044E+9 1.29089E+6 36.3033 0.0198538 34.6224 0.0193886 17.9902 0.0330722
9776 2.35605E+9 1.28894E+6 2.35605E+9 1.28894E+6 36.4356 0.0199332 34.7545 0.019468 17.9847 0.0330781
9777 2.35391E+9 1.28751E+6 2.35391E+9 1.28751E+6 36.6034 0.020021 34.9174 0.0195545 17.9792 0.0330747
9778 2.3519E+9 1.28625E+6 2.3519E+9 1.28625E+6 36.7738 0.0201116 35.0814 0.0196435 17.9737 0.0330726
9779 2.34722E+9 1.28414E+6 2.34722E+9 1.28414E+6 36.903 0.0201893 35.2036 0.0197189 17.9682 0.0330784
9780 2.34541E+9 1.28286E+6 2.34541E+9 1.28286E+6 37.0779 0.0202805 35.3715 0.0198085 17.9627 0.0330747
9781 2.34322E+9 1.28152E+6 2.34322E+9 1.28152E+6 37.2476 0.020371 35.5405 0.0198988 17.9572 0.0330729
9782 2.33989E+9 1.27981E+6 2.33989E+9 1.27981E+6 37.3997 0.0204559 35.6872 0.0199821 17.9517 0.0330742
9783 2.33758E+9 1.27842E+6 2.33758E+9 1.27842E+6 37.569 0.0205465 35.8407 0.0200683 17.9462 0.0330726
9784 2.33524E+9 1.27701E+6 2.33524E+9 1.27701E+6 37.7383 0.0206369 35.9994 0.0201557 17.9407 0.0330709
9785 2.33211E+9 1.27537E+6 2.33211E+9 1.27537E+6 37.8955 0.0207241 36.157 0.0202435 17.9352 0.0330718
9786 2.32905E+9 1.27373E+6 2.32905E+9 1.27373E+6 38.0544 0.0208116 36.311 0.0203293 17.9297 0.0330723
9787 2.32575E+9 1.27206E+6 2.32575E+9 1.27206E+6 38.2101 0.020899 36.4596 0.0204148 17.9242 0.0330741
9788 2.32447E+9 1.27095E+6 2.32447E+9 1.27095E+6 38.3998 0.0209959 36.6409 0.0205094 17.9187 0.0330687
9789 2.32101E+9 1.26923E+6 2.32101E+9 1.26923E+6 38.5542 0.0210831 36.7889 0.0205947 17.9132 0.0330709
9790 2.31743E+9 1.26747E+6 2.31743E+9 1.26747E+6 38.7069 0.0211699 36.9406 0.0206813 17.9077 0.0330735
9791 2.31537E+9 1.26606E+6 2.31537E+9 1.26606E+6 38.8857 0.021263 37.1113 0.0207723 17.9022 0.0330698
9792 2.31179E+9 1.26432E+6 2.31179E+9 1.26432E+6 39.0398 0.021351 37.2577 0.0208581 17.8967 0.0330727
9793 2.30907E+9 1.26284E+6 2.30907E+9 1.26284E+6 39.2088 0.0214436 37.4105 0.020946 17.8912 0.0330728
9794 2.30658E+9 1.26133E+6 2.30658E+9 1.26133E+6 39.3826 0.021536 37.5799 0.0210374 17.8857 0.0330709
9795 2.30327E+9 1.25968E+6 2.30327E+9 1.25968E+6 39.543 0.0216266 37.7414 0.0211285 17.8802 0.033073
9796 2.29909E+9 1.25779E+6 2.29909E+9 1.25779E+6 39.689 0.0217132 37.8672 0.0212092 17.8747 0.0330782
9797 2.29766E+9 1.25658E+6 2.29766E+9 1.25658E+6 39.883 0.0218119 38.0662 0.0213093 17.8692 0.0330725
9798 2.2944E+9 1.25491E+6 2.2944E+9 1.25491E+6 40.0461 0.021903 38.2193 0.0213976 17.8637 0.033074
9799 2.29442E+9 1.25419E+6 2.29442E+9 1.25419E+6 40.2673 0.0220113 38.4311 0.0215034 17.8582 0.0330644
9800 2.29078E+9 1.25242E+6 2.29078E+9 1.25242E+6 40.4253 0.0221014 38.5771 0.0215903 17.8527 0.0330673
9801 2.288E+9 1.25089E+6 2.288E+9 1.25089E+6 40.5987 0.0221961 38.7479 0.0216843 17.8472 0.0330672
9802 2.28349E+9 1.24887E+6 2.28349E+9 1.24887E+6 40.7423 0.0222825 38.894 0.0217714 17.8417 0.033073
9803 2.27972E+9 1.2471E+6 2.27972E+9 1.2471E+6 40.8993 0.0223736 39.0297 0.021856 17.8362 0.0330769
9804 2.27724E+9 1.24554E+6 2.27724E+9 1.24554E+6 41.0801 0.0224689 39.2116 0.0219519 17.8307 0.0330742
9805 2.27461E+9 1.24411E+6 2.27461E+9 1.24411E+6 41.2589 0.022567 39.3812 0.0220476 17.8252 0.0330744
9806 2.27452E+9 1.24331E+6 2.27452E+9 1.24331E+6 41.4849 0.0226768 39.6016 0.0221561 17.8197 0.0330644
9807 2.27019E+9 1.24142E+6 2.27019E+9 1.24142E+6 41.6342 0.0227671 39.7431 0.0222442 17.8142 0.0330707
9808 2.26771E+9 1.23989E+6 2.26771E+9 1.23989E+6 41.8181 0.0228644 39.9188 0.0223394 17.8087 0.0330683
9809 2.26243E+9 1.2378E+6 2.26243E+9 1.2378E+6 41.9509 0.0229519 40.0537 0.0224268 17.8032 0.0330791
9810 2.26097E+9 1.23667E+6 2.26097E+9 1.23667E+6 42.155 0.0230574 40.2469 0.0225297 17.7977 0.0330746
9811 2.25994E+9 1.23572E+6 2.25994E+9 1.23572E+6 42.368 0.0231667 40.4506 0.0226364 17.7922 0.0330695
9812 2.25675E+9 1.23414E+6 2.25675E+9 1.23414E+6 42.5416 0.0232646 40.6047 0.0227288 17.7867 0.0330716
9813 2.25292E+9 1.23234E+6 2.25292E+9 1.23234E+6 42.7037 0.0233589 40.7656 0.0228228 17.7812 0.0330756
9814 2.2491E+9 1.23057E+6 2.2491E+9 1.23057E+6 42.8663 0.023454 40.9319 0.0229189 17.7757 0.03308
9815 2.24729E+9 1.2294E+6 2.24729E+9 1.2294E+6 43.068 0.0235609 41.1299 0.0230248 17.7702 0.0330775
9816 2.24486E+9 1.228E+6 2.24486E+9 1.228E+6 43.2587 0.0236637 41.307 0.0231239 17.7647 0.0330765
9817 2.24332E+9 1.22685E+6 2.24332E+9 1.22685E+6 43.4678 0.0237723 41.5053 0.0232294 17.7592 0.0330724
9818 2.24112E+9 1.22557E+6 2.24112E+9 1.22557E+6 43.6645 0.0238783 41.6923 0.0233328 17.7537 0.0330714
9819 2.23734E+9 1.22388E+6 2.23734E+9 1.22388E+6 43.8313 0.0239769 41.8524 0.0234294 17.7482 0.0330765
9820 2.2358E+9 1.22269E+6 2.2358E+9 1.22269E+6 44.0425 0.0240855 42.0499 0.0235344 17.7427 0.0330717
9821 2.23437E+9 1.22157E+6 2.23437E+9 1.22157E+6 44.2571 0.0241962 42.265 0.0236453 17.7372 0.0330672
9822 2.23125E+9 1.22008E+6 2.23125E+9 1.22008E+6 44.439 0.0243 42.4302 0.0237447 17.7317 0.0330701
9823 2.22607E+9 1.21792E+6 2.22607E+9 1.21792E+6 44.5805 0.0243908 42.5652 0.0238331 17.7262 0.0330792
9824 2.22614E+9 1.21728E+6 2.22614E+9 1.21728E+6 44.8275 0.0245123 42.8061 0.0239532 17.7207 0.03307
9825 2.22346E+9 1.21583E+6 2.22346E+9 1.21583E+6 45.0205 0.0246182 42.9905 0.0240569 17.7152 0.0330703
9826 2.22026E+9 1.21425E+6 2.22026E+9 1.21425E+6 45.204 0.0247219 43.1738 0.0241606 17.7097 0.0330725
9827 2.21844E+9 1.21305E+6 2.21844E+9 1.21305E+6 45.416 0.0248337 43.3697 0.0242679 17.7042 0.0330697
9828 2.2177E+9 1.21215E+6 2.2177E+9 1.21215E+6 45.6513 0.024952 43.5979 0.0243847 17.6987 0.0330629
9829 2.21105E+9 1.20963E+6 2.21105E+9 1.20963E+6 45.7651 0.0250374 43.7106 0.024469 17.6932 0.0330782
9830 2.20859E+9 1.20819E+6 2.20859E+9 1.20819E+6 45.9663 0.0251456 43.9035 0.0245748 17.6877 0.033077
9831 2.20833E+9 1.20747E+6 2.20833E+9 1.20747E+6 46.2145 0.0252692 44.1327 0.0246934 17.6822 0.033069
9832 2.20626E+9 1.20616E+6 2.20626E+9 1.20616E+6 46.4257 0.0253809 44.3419 0.0248046 17.6767 0.0330666
9833 2.20313E+9 1.20463E+6 2.20313E+9 1.20463E+6 46.6157 0.0254887 44.5244 0.0249103 17.6712 0.0330691
9834 2.19969E+9 1.20295E+6 2.19969E+9 1.20295E+6 46.7996 0.0255935 44.699 0.0250126 17.6657 0.0330718
9835 2.19584E+9 1.20122E+6 2.19584E+9 1.20122E+6 46.9751 0.0256976 44.8618 0.0251128 17.6602 0.033077
9836 2.19408E+9 1.20005E+6 2.19408E+9 1.20005E+6 47.1964 0.0258142 45.0828 0.0252298 17.6547 0.0330742
9837 2.19238E+9 1.19887E+6 2.19238E+9 1.19887E+6 47.4199 0.025931 45.2975 0.025344 17.6492 0.0330708
9838 2.18929E+9 1.1973E+6 2.18929E+9 1.1973E+6 47.6143 0.0260399 45.4788 0.0254492 17.6437 0.0330724
9839 2.18758E+9 1.19616E+6 2.18758E+9 1.19616E+6 47.8392 0.0261586 45.7032 0.0255678 17.6382 0.0330696
9840 2.18705E+9 1.19532E+6 2.18705E+9 1.19532E+6 48.0917 0.0262844 45.939 0.0256894 17.6327 0.0330619
9841 2.18031E+9 1.19276E+6 2.18031E+9 1.19276E+6 48.2079 0.0263727 46.0507 0.0257758 17.6272 0.0330775
9842 2.18018E+9 1.192E+6 2.18018E+9 1.192E+6 48.4708 0.0265013 46.3027 0.0259018 17.6217 0.033068
9843 2.1754E+9 1.19E+6 2.1754E+9 1.19E+6 48.6313 0.0266027 46.4599 0.026002 17.6162 0.0330765
9844 2.17526E+9 1.18929E+6 2.17526E+9 1.18929E+6 48.8963 0.0267335 46.724 0.0261329 17.6107 0.0330677
9845 2.1732E+9 1.18798E+6 2.1732E+9 1.18798E+6 49.1196 0.0268514 46.9319 0.0262466 17.6052 0.0330652
9846 2.17102E+9 1.18677E+6 2.17102E+9 1.18677E+6 49.3408 0.0269719 47.133 0.0263616 17.5997 0.0330649
9847 2.16625E+9 1.1847E+6 2.16625E+9 1.1847E+6 49.5039 0.0270734 47.3023 0.0264645 17.5942 0.0330724
9848 2.16398E+9 1.18347E+6 2.16398E+9 1.18347E+6 49.7249 0.0271944 47.5033 0.0265801 17.5887 0.0330725
9849 2.16226E+9 1.18229E+6 2.16226E+9 1.18229E+6 49.9593 0.027317 47.7222 0.0266981 17.5832 0.0330691
9850 2.15847E+9 1.18049E+6 2.15847E+9 1.18049E+6 50.1468 0.0274259 47.9112 0.0268077 17.5777 0.033073
9851 2.15761E+9 1.17954E+6 2.15761E+9 1.17954E+6 50.4027 0.0275548 48.1633 0.0269356 17.5722 0.0330663
9852 2.155E+9 1.17816E+6 2.155E+9 1.17816E+6 50.6052 0.0276664 48.3507 0.027043 17.567 0.0330669
9853 2.15173E+9 1.17659E+6 2.15173E+9 1.17659E+6 50.7737 0.0277636 48.5211 0.0271408 17.5622 0.0330699
9854 2.14734E+9 1.17469E+6 2.14734E+9 1.17469E+6 50.9102 0.0278502 48.6538 0.027226 17.5574 0.033077
9855 2.1477E+9 1.17414E+6 2.1477E+9 1.17414E+6 51.1602 0.0279692 48.888 0.0273408 17.5527 0.0330665
9856 2.1435E+9 1.17225E+6 2.1435E+9 1.17225E+6 51.302 0.0280565 49.0275 0.0274274 17.548 0.0330723
9857 2.13888E+9 1.17027E+6 2.13888E+9 1.17027E+6 51.4343 0.028142 49.1483 0.0275095 17.5432 0.03308
9858 2.13923E+9 1.16967E+6 2.13923E+9 1.16967E+6 51.6862 0.0282607 49.3979 0.027628 17.5385 0.0330688
9859 2.13543E+9 1.16794E+6 2.13543E+9 1.16794E+6 51.839 0.0283527 49.5442 0.0277179 17.5338 0.0330738
9860 2.13431E+9 1.16697E+6 2.13431E+9 1.16697E+6 52.0574 0.0284634 49.7558 0.027827 17.5291 0.0330687
9861 2.13333E+9 1.16599E+6 2.13333E+9 1.16599E+6 52.28 0.0285743 49.9608 0.0279335 17.5243 0.0330625
9862 2.12786E+9 1.16381E+6 2.12786E+9 1.16381E+6 52.3932 0.028656 50.0763 0.0280154 17.5196 0.0330739
9863 2.12593E+9 1.16262E+6 2.12593E+9 1.16262E+6 52.594 0.0287624 50.2676 0.0281191 17.5149 0.0330719
9864 2.12477E+9 1.16162E+6 2.12477E+9 1.16162E+6 52.8141 0.0288738 50.4861 0.0282304 17.5102 0.0330668
9865 2.12071E+9 1.1598E+6 2.12071E+9 1.1598E+6 52.9632 0.0289652 50.62 0.0283172 17.5054 0.0330724
9866 2.11776E+9 1.1583E+6 2.11776E+9 1.1583E+6 53.1401 0.0290649 50.7918 0.0284152 17.5007 0.0330741
9867 2.11463E+9 1.15673E+6 2.11463E+9 1.15673E+6 53.313 0.029163 50.9612 0.0285125 17.496 0.0330761
9868 2.11432E+9 1.15599E+6 2.11432E+9 1.15599E+6 53.5579 0.0292824 51.1916 0.0286283 17.4912 0.0330679
9869 2.11034E+9 1.15421E+6 2.11034E+9 1.15421E+6 53.7102 0.0293759 51.3458 0.0287222 17.4865 0.0330736
9870 2.10758E+9 1.15277E+6 2.10758E+9 1.15277E+6 53.8944 0.0294784 51.5246 0.0288232 17.4818 0.0330746
9871 2.1057E+9 1.15166E+6 2.1057E+9 1.15166E+6 54.1015 0.0295895 51.7259 0.0289325 17.477 0.0330734
9872 2.10207E+9 1.15013E+6 2.10207E+9 1.15013E+6 54.2642 0.0296902 51.8811 0.0290308 17.4723 0.0330799
9873 2.09685E+9 1.14854E+6 2.09685E+9 1.14854E+6 54.386 0.0297898 51.9896 0.029126 17.4676 0.0330983
9874 2.0906E+9 1.14734E+6 2.0906E+9 1.14734E+6 54.481 0.0298998 52.0871 0.0292355 17.4629 0.0331303
9875 2.07833E+9 1.14589E+6 2.07833E+9 1.14589E+6 54.4177 0.0300036 52.0192 0.0293346 17.4581 0.0332071
9876 2.05885E+9 1.14468E+6 2.05885E+9 1.14468E+6 54.1627 0.0301138 51.7823 0.0294442 17.4534 0.0333462
9877 2.01285E+9 1.13919E+6 2.01285E+9 1.13919E+6 53.2023 0.030111 50.8633 0.0294414 17.4487 0.0336442
9878 1.92293E+9 1.12436E+6 1.92293E+9 1.12436E+6 51.0644 0.029859 48.8202 0.0291953 17.444 0.0341972
9879 1.76117E+9 1.08961E+6 1.76117E+9 1.08961E+6 46.9868 0.0290713 44.9349 0.028429 17.4394 0.0351767
9880 1.49816E+9 1.0203E+6 1.49816E+9 1.0203E+6 40.1539 0.0273475 38.4078 0.026745 17.4348 0.0369067
9881 1.15206E+9 913248 1.15206E+9 913248 31.0188 0.0245907 29.67 0.0240476 17.4302 0.0398181
9882 7.95191E+8 785568 7.95191E+8 785568 21.5083 0.021251 20.5801 0.0207835 17.4257 0.0444515
9883 5.03857E+8 668517 5.03857E+8 668517 13.6915 0.0181709 13.1002 0.0177707 17.421 0.0515167
9884 3.06581E+8 599313 3.06581E+8 599313 8.37013 0.0163717 7.99841 0.0160027 17.4163 0.0625365
9885 2.06375E+8 586074 2.06375E+8 586074 5.66345 0.0160893 5.41008 0.0157244 17.4112 0.0753708
9886 2.32304E+8 588404 2.32304E+8 588404 6.41144 0.0162284 6.12645 0.0158634 17.4055 0.0711625
9887 3.7262E+8 616155 3.7262E+8 616155 10.3344 0.0170808 9.88968 0.0167075 17.4006 0.0575012
9888 6.05725E+8 707029 6.05725E+8 707029 16.8786 0.0196969 16.1416 0.0192577 17.3959 0.0483138
9889 9.2657E+8 830021 9.2657E+8 830021 25.9381 0.0232324 24.8147 0.0227196 17.3913 0.0423259
9890 1.27644E+9 946951 1.27644E+9 946951 35.8953 0.0266275 34.3386 0.0260412 17.3867 0.0385186
9891 1.58198E+9 1.03465E+6 1.58198E+9 1.03465E+6 44.6907 0.0292269 42.752 0.0285849 17.3822 0.0361663
9892 1.7946E+9 1.08542E+6 1.7946E+9 1.08542E+6 50.9306 0.0308025 48.7276 0.0301289 17.3776 0.0347796
9893 1.92113E+9 1.10906E+6 1.92113E+9 1.10906E+6 54.7754 0.0316205 52.3862 0.030923 17.3729 0.033979
9894 1.98514E+9 1.11667E+6 1.98514E+9 1.11667E+6 56.8664 0.0319874 54.3955 0.0312842 17.3683 0.0335413
9895 2.01605E+9 1.11799E+6 2.01605E+9 1.11799E+6 58.024 0.0321763 55.4919 0.0314661 17.3635 0.0333028
9896 2.03147E+9 1.11771E+6 2.03147E+9 1.11771E+6 58.7444 0.0323208 56.1915 0.0316105 17.3588 0.0331721
9897 2.03585E+9 1.11629E+6 2.03585E+9 1.11629E+6 59.1497 0.0324327 56.5675 0.0317171 17.3541 0.0331154
9898 2.03706E+9 1.11498E+6 2.03706E+9 1.11498E+6 59.4651 0.0325482 56.8942 0.0318367 17.3494 0.0330863
9899 2.0361E+9 1.11366E+6 2.0361E+9 1.11366E+6 59.7187 0.0326637 57.1242 0.0319461 17.3447 0.0330744
9900 2.03336E+9 1.11207E+6 2.03336E+9 1.11207E+6 59.921 0.0327715 57.3231 0.0320533 17.3399 0.033073
9901 2.03198E+9 1.11098E+6 2.03198E+9 1.11098E+6 60.1642 0.0328945 57.5605 0.0321749 17.3352 0.033068
9902 2.0292E+9 1.10946E+6 2.0292E+9 1.10946E+6 60.3666 0.0330053 57.7546 0.0322833 17.3305 0.033068
9903 2.02664E+9 1.10815E+6 2.02664E+9 1.10815E+6 60.5761 0.0331227 57.949 0.0323967 17.3257 0.0330694
9904 2.02446E+9 1.1068E+6 2.02446E+9 1.1068E+6 60.7978 0.033239 58.1737 0.0325138 17.321 0.033067
9905 2.01919E+9 1.10473E+6 2.01919E+9 1.10473E+6 60.927 0.0333341 58.293 0.0326059 17.3163 0.0330792
9906 2.01808E+9 1.10375E+6 2.01808E+9 1.10375E+6 61.1822 0.0334624 58.5361 0.032731 17.3116 0.0330736
9907 2.01582E+9 1.10246E+6 2.01582E+9 1.10246E+6 61.4031 0.0335817 58.7425 0.032846 17.3068 0.0330728
9908 2.01277E+9 1.10092E+6 2.01277E+9 1.10092E+6 61.6008 0.0336938 58.9241 0.0329536 17.3021 0.0330748
9909 2.01211E+9 1.10017E+6 2.01211E+9 1.10017E+6 61.8724 0.0338301 59.2068 0.0330935 17.2974 0.0330688
9910 2.01028E+9 1.09893E+6 2.01028E+9 1.09893E+6 62.1092 0.0339523 59.4251 0.0332107 17.2926 0.0330652
9911 2.00678E+9 1.09733E+6 2.00678E+9 1.09733E+6 62.2949 0.0340636 59.6141 0.0333223 17.2879 0.03307
9912 2.0046E+9 1.09605E+6 2.0046E+9 1.09605E+6 62.5223 0.0341853 59.8217 0.0334387 17.2832 0.0330687
9913 2.00226E+9 1.09476E+6 2.00226E+9 1.09476E+6 62.7451 0.0343067 60.0419 0.0335596 17.2785 0.0330685
9914 1.99984E+9 1.09341E+6 1.99984E+9 1.09341E+6 62.9664 0.0344267 60.2534 0.033677 17.2737 0.033068
9915 1.99745E+9 1.0921E+6 1.99745E+9 1.0921E+6 63.1892 0.0345485 60.4645 0.0337953 17.269 0.033068
9916 1.99463E+9 1.0906E+6 1.99463E+9 1.0906E+6 63.3989 0.0346648 60.6504 0.0339048 17.2643 0.0330688
9917 1.99095E+9 1.08897E+6 1.99095E+9 1.08897E+6 63.5819 0.0347768 60.8385 0.0340183 17.2595 0.0330745
9918 1.98985E+9 1.08799E+6 1.98985E+9 1.08799E+6 63.848 0.0349104 61.0972 0.0341499 17.2548 0.0330688
9919 1.98702E+9 1.08664E+6 1.98702E+9 1.08664E+6 64.0594 0.0350322 61.3098 0.0342721 17.2501 0.0330718
9920 1.98432E+9 1.08532E+6 1.98432E+9 1.08532E+6 64.2755 0.0351553 61.5181 0.034393 17.2454 0.0330741
9921 1.98331E+9 1.08439E+6 1.98331E+9 1.08439E+6 64.5476 0.0352918 61.7711 0.0345243 17.2406 0.0330683
9922 1.9816E+9 1.08328E+6 1.9816E+9 1.08328E+6 64.7973 0.0354229 62.0046 0.0346513 17.2359 0.0330657
9923 1.97816E+9 1.08175E+6 1.97816E+9 1.08175E+6 64.9913 0.0355403 62.1986 0.0347682 17.2312 0.0330711
9924 1.97637E+9 1.08064E+6 1.97637E+9 1.08064E+6 65.2404 0.0356722 62.4334 0.0348967 17.2264 0.033069
9925 1.97404E+9 1.07934E+6 1.97404E+9 1.07934E+6 65.4722 0.0357981 62.6666 0.0350226 17.2217 0.0330686
9926 1.97081E+9 1.07791E+6 1.97081E+9 1.07791E+6 65.6749 0.0359201 62.8538 0.0351403 17.217 0.0330738
9927 1.96956E+9 1.07692E+6 1.96956E+9 1.07692E+6 65.9443 0.0360573 63.1205 0.0352769 17.2123 0.0330691
9928 1.96678E+9 1.07551E+6 1.96678E+9 1.07551E+6 66.1636 0.0361809 63.3168 0.0353941 17.2075 0.0330708
9929 1.96371E+9 1.07401E+6 1.96371E+9 1.07401E+6 66.3732 0.0363014 63.5452 0.0355198 17.2028 0.0330735
9930 1.96249E+9 1.07311E+6 1.96249E+9 1.07311E+6 66.6464 0.0364429 63.7965 0.0356555 17.1981 0.0330699
9931 1.95858E+9 1.07138E+6 1.95858E+9 1.07138E+6 66.829 0.0365567 63.9688 0.035766 17.1934 0.0330762
9932 1.95826E+9 1.0707E+6 1.95826E+9 1.0707E+6 67.1345 0.0367066 64.2643 0.0359135 17.1886 0.0330685
9933 1.95606E+9 1.06953E+6 1.95606E+9 1.06953E+6 67.377 0.0368405 64.4873 0.0360418 17.1839 0.033069
9934 1.95368E+9 1.06821E+6 1.95368E+9 1.06821E+6 67.6141 0.0369693 64.7191 0.0361693 17.1792 0.0330687
9935 1.95138E+9 1.06698E+6 1.95138E+9 1.06698E+6 67.8546 0.0371016 64.9685 0.0363039 17.1744 0.033069
9936 1.9479E+9 1.06543E+6 1.9479E+9 1.06543E+6 68.0546 0.0372235 65.1425 0.0364186 17.1697 0.0330746
9937 1.9454E+9 1.06415E+6 1.9454E+9 1.06415E+6 68.2891 0.0373548 65.3798 0.0365508 17.165 0.0330759
9938 1.94377E+9 1.06302E+6 1.94377E+9 1.06302E+6 68.5554 0.037492 65.6293 0.0366833 17.1602 0.0330722
9939 1.94241E+9 1.06205E+6 1.94241E+9 1.06205E+6 68.832 0.0376353 65.9129 0.0368287 17.1555 0.0330687
9940 1.93959E+9 1.06067E+6 1.93959E+9 1.06067E+6 69.0579 0.0377647 66.1231 0.0369537 17.1508 0.0330713
9941 1.93643E+9 1.0592E+6 1.93643E+9 1.0592E+6 69.2721 0.0378909 66.3264 0.0370766 17.1461 0.0330752
9942 1.93538E+9 1.05828E+6 1.93538E+9 1.05828E+6 69.5629 0.0380376 66.6078 0.0372207 17.1413 0.0330699
9943 1.93345E+9 1.05709E+6 1.93345E+9 1.05709E+6 69.8227 0.0381748 66.8499 0.0373535 17.1366 0.0330678
9944 1.93099E+9 1.05589E+6 1.93099E+9 1.05589E+6 70.0645 0.0383123 67.0891 0.0374899 17.1319 0.03307
9945 1.92763E+9 1.05434E+6 1.92763E+9 1.05434E+6 70.274 0.0384372 67.2912 0.0376126 17.1272 0.0330745
9946 1.92598E+9 1.05326E+6 1.92598E+9 1.05326E+6 70.5467 0.03858 67.5528 0.0377524 17.1224 0.0330718
9947 1.9219E+9 1.05153E+6 1.9219E+9 1.05153E+6 70.7307 0.0386991 67.7414 0.0378727 17.1177 0.0330797
9948 1.92009E+9 1.05039E+6 1.92009E+9 1.05039E+6 70.9991 0.0388404 67.9879 0.038008 17.113 0.0330773
9949 1.91936E+9 1.04965E+6 1.91936E+9 1.04965E+6 71.3086 0.0389971 68.2863 0.0381618 17.1082 0.033072
9950 1.91651E+9 1.04822E+6 1.91651E+9 1.04822E+6 71.5402 0.0391285 68.5082 0.0382904 17.1035 0.033074
9951 1.91504E+9 1.04721E+6 1.91504E+9 1.04721E+6 71.8243 0.039276 68.7725 0.0384322 17.0988 0.0330706
9952 1.91301E+9 1.04603E+6 1.91301E+9 1.04603E+6 72.0876 0.0394173 69.0425 0.0385759 17.0941 0.0330695
9953 1.91081E+9 1.04485E+6 1.91081E+9 1.04485E+6 72.3462 0.0395597 69.2845 0.0387134 17.0893 0.03307
9954 1.90811E+9 1.04351E+6 1.90811E+9 1.04351E+6 72.5866 0.0396963 69.5186 0.0388483 17.0846 0.0330721
9955 1.90791E+9 1.04283E+6 1.90791E+9 1.04283E+6 72.9228 0.0398584 69.8426 0.0390074 17.0799 0.033063
9956 1.90509E+9 1.04146E+6 1.90509E+9 1.04146E+6 73.1602 0.0399947 70.0802 0.0391438 17.0751 0.0330658
9957 1.90061E+9 1.03958E+6 1.90061E+9 1.03958E+6 73.334 0.0401116 70.2495 0.039259 17.0704 0.0330748
9958 1.89811E+9 1.03828E+6 1.89811E+9 1.03828E+6 73.5844 0.0402514 70.4715 0.0393911 17.0657 0.0330759
9959 1.89683E+9 1.03732E+6 1.89683E+9 1.03732E+6 73.8837 0.040405 70.7502 0.0395391 17.061 0.0330718
9960 1.8946E+9 1.03615E+6 1.8946E+9 1.03615E+6 74.1466 0.0405507 71.0362 0.0396911 17.0562 0.0330726
9961 1.89254E+9 1.03494E+6 1.89254E+9 1.03494E+6 74.417 0.040695 71.2927 0.0398318 17.0515 0.0330712
9962 1.89019E+9 1.0337E+6 1.89019E+9 1.0337E+6 74.6768 0.040839 71.5333 0.03997 17.0468 0.0330719
9963 1.8888E+9 1.03267E+6 1.8888E+9 1.03267E+6 74.9757 0.0409918 71.8067 0.0401164 17.042 0.0330676
9964 1.88571E+9 1.03125E+6 1.88571E+9 1.03125E+6 75.2076 0.0411293 72.0277 0.0402504 17.0373 0.0330719
9965 1.88217E+9 1.02968E+6 1.88217E+9 1.02968E+6 75.4222 0.0412614 72.2507 0.0403848 17.0326 0.0330779
9966 1.88151E+9 1.02887E+6 1.88151E+9 1.02887E+6 75.7532 0.0414246 72.5675 0.0405443 17.0279 0.0330707
9967 1.87976E+9 1.02778E+6 1.87976E+9 1.02778E+6 76.0415 0.0415767 72.8434 0.040693 17.0231 0.0330685
9968 1.87655E+9 1.02631E+6 1.87655E+9 1.02631E+6 76.2714 0.0417142 73.0768 0.0408311 17.0184 0.0330731
9969 1.87488E+9 1.02526E+6 1.87488E+9 1.02526E+6 76.565 0.0418688 73.3599 0.0409831 17.0137 0.0330708
9970 1.87188E+9 1.02381E+6 1.87188E+9 1.02381E+6 76.8043 0.0420076 73.5852 0.0411179 17.0089 0.0330739
9971 1.86975E+9 1.02265E+6 1.86975E+9 1.02265E+6 77.0805 0.0421587 73.8493 0.0412656 17.0042 0.033074
9972 1.86689E+9 1.02122E+6 1.86689E+9 1.02122E+6 77.3277 0.0422996 74.0836 0.0414031 16.9995 0.0330762
9973 1.86606E+9 1.02044E+6 1.86606E+9 1.02044E+6 77.6593 0.0424676 74.4009 0.0415669 16.9948 0.033071
9974 1.86381E+9 1.01923E+6 1.86381E+9 1.01923E+6 77.9332 0.0426182 74.665 0.0417149 16.99 0.0330713
9975 1.86109E+9 1.01783E+6 1.86109E+9 1.01783E+6 78.1885 0.0427616 74.9156 0.041857 16.9853 0.0330727
9976 1.85933E+9 1.01675E+6 1.85933E+9 1.01675E+6 78.4845 0.0429184 75.1985 0.0420103 16.9806 0.0330708
9977 1.85722E+9 1.01558E+6 1.85722E+9 1.01558E+6 78.7669 0.043072 75.4551 0.0421565 16.9759 0.0330705
9978 1.85323E+9 1.01392E+6 1.85323E+9 1.01392E+6 78.9704 0.0432057 75.6762 0.0422948 16.9711 0.033079
9979 1.85314E+9 1.01327E+6 1.85314E+9 1.01327E+6 79.3408 0.0433826 76.0218 0.0424655 16.9664 0.0330692
9980 1.85076E+9 1.01201E+6 1.85076E+9 1.01201E+6 79.6144 0.0435341 76.2952 0.0426172 16.9617 0.03307
9981 1.84795E+9 1.01066E+6 1.84795E+9 1.01066E+6 79.8703 0.043682 76.5362 0.0427604 16.9569 0.033073
9982 1.84593E+9 1.0095E+6 1.84593E+9 1.0095E+6 80.1612 0.0438386 76.838 0.0429209 16.9522 0.033072
9983 1.8449E+9 1.00862E+6 1.8449E+9 1.00862E+6 80.4963 0.0440081 77.1392 0.0430805 16.9475 0.0330669
9984 1.84176E+9 1.00719E+6 1.84176E+9 1.00719E+6 80.7404 0.0441538 77.3709 0.043223 16.9427 0.0330715
9985 1.8388E+9 1.00573E+6 1.8388E+9 1.00573E+6 80.9927 0.0442989 77.6108 0.0433641 16.938 0.0330741
9986 1.83804E+9 1.00497E+6 1.83804E+9 1.00497E+6 81.3423 0.0444749 77.949 0.0435374 16.9333 0.0330685
9987 1.83548E+9 1.00363E+6 1.83548E+9 1.00363E+6 81.6142 0.0446263 78.2264 0.0436901 16.9286 0.0330695
9988 1.83375E+9 1.0026E+6 1.83375E+9 1.0026E+6 81.9241 0.0447921 78.5248 0.0438531 16.9238 0.0330681
9989 1.83074E+9 1.00113E+6 1.83074E+9 1.00113E+6 82.1769 0.044938 78.7536 0.0439923 16.9191 0.033071
9990 1.82825E+9 999865 1.82825E+9 999865 82.4544 0.0450943 79.0437 0.0441524 16.9144 0.0330726
9991 1.82629E+9 998697 1.82629E+9 998697 82.7561 0.0452548 79.3141 0.0443039 16.9097 0.033071
9992 1.82508E+9 997836 1.82508E+9 997836 83.0931 0.0454301 79.6513 0.0444791 16.9049 0.0330677
9993 1.82225E+9 996444 1.82225E+9 996444 83.3575 0.0455818 79.9012 0.0446267 16.9002 0.0330703
9994 1.82107E+9 995546 1.82107E+9 995546 83.6988 0.0457568 80.2408 0.0448017 16.8955 0.0330661
9995 1.81855E+9 994206 1.81855E+9 994206 83.9788 0.0459116 80.4918 0.0449486 16.8907 0.0330667
9996 1.81643E+9 993026 1.81643E+9 993026 84.2785 0.0460744 80.799 0.0451131 16.886 0.0330664
9997 1.81366E+9 991678 1.81366E+9 991678 84.5489 0.0462298 81.0648 0.0452677 16.8813 0.0330691
9998 1.81134E+9 990502 1.81134E+9 990502 84.841 0.046394 81.3515 0.0454299 16.8766 0.0330707
9999 1.80928E+9 989310 1.80928E+9 989310 85.146 0.0465577 81.629 0.0455861 16.8718 0.0330696
10000 1.80678E+9 988016 1.80678E+9 988016 85.4314 0.0467173 81.896 0.0457408 16.8671 0.0330708
10001 1.80415E+9 986726 1.80415E+9 986726 85.7113 0.0468773 82.1656 0.0458977 16.8624 0.0330733
10002 1.80403E+9 986063 1.80403E+9 986063 86.1117 0.0470679 82.5603 0.0460868 16.8576 0.0330633
10003 1.80173E+9 984908 1.80173E+9 984908 86.4096 0.0472356 82.8334 0.0462479 16.8529 0.033065
10004 1.79966E+9 983727 1.79966E+9 983727 86.7198 0.0474027 83.1281 0.0464105 16.8482 0.0330641
10005 1.79582E+9 982062 1.79582E+9 982062 86.9443 0.0475465 83.3545 0.0465547 16.8435 0.0330715
10006 1.79422E+9 981022 1.79422E+9 981022 87.279 0.0477214 83.6878 0.046729 16.8387 0.0330687
10007 1.79024E+9 979358 1.79024E+9 979358 87.498 0.0478662 83.8772 0.0468651 16.834 0.0330773
10008 1.7889E+9 978432 1.7889E+9 978432 87.8468 0.0480476 84.224 0.0470462 16.8293 0.0330741
10009 1.78595E+9 977003 1.78595E+9 977003 88.1175 0.0482049 84.4932 0.0472029 16.8245 0.0330772
10010 1.78529E+9 976249 1.78529E+9 976249 88.5021 0.0483958 84.8559 0.0473884 16.8198 0.0330706
10011 1.78387E+9 975263 1.78387E+9 975263 88.8516 0.0485763 85.1992 0.0475673 16.8151 0.033067
10012 1.78109E+9 973926 1.78109E+9 973926 89.1332 0.0487395 85.483 0.047731 16.8104 0.0330701
10013 1.77853E+9 972603 1.77853E+9 972603 89.4266 0.0489039 85.7397 0.0478856 16.8056 0.0330714
10014 1.77764E+9 971799 1.77764E+9 971799 89.8061 0.0490952 86.1095 0.0480741 16.8009 0.033066
10015 1.77402E+9 970184 1.77402E+9 970184 90.0477 0.0492458 86.3465 0.048223 16.7962 0.0330722
10016 1.77223E+9 969082 1.77223E+9 969082 90.383 0.049423 86.6791 0.0483999 16.7914 0.0330701
10017 1.76971E+9 967873 1.76971E+9 967873 90.6824 0.0495953 86.9616 0.0485675 16.7867 0.033073
10018 1.76843E+9 966846 1.76843E+9 966846 91.0461 0.0497775 87.3321 0.0487515 16.782 0.0330674
10019 1.76584E+9 965595 1.76584E+9 965595 91.3436 0.0499486 87.5908 0.0489118 16.7773 0.0330703
10020 1.76366E+9 964429 1.76366E+9 964429 91.6632 0.0501247 87.9113 0.0490883 16.7725 0.0330707
10021 1.76128E+9 963173 1.76128E+9 963173 91.9735 0.0502968 88.1886 0.0492511 16.7678 0.0330715
10022 1.76058E+9 962392 1.76058E+9 962392 92.3729 0.0504943 88.6124 0.0494561 16.7631 0.0330646
10023 1.75758E+9 961003 1.75758E+9 961003 92.652 0.0506601 88.8578 0.0496121 16.7584 0.033069
10024 1.75646E+9 960081 1.75646E+9 960081 93.0325 0.0508516 89.2313 0.049802 16.7536 0.0330636
10025 1.75238E+9 958386 1.75238E+9 958386 93.2558 0.0510023 89.4586 0.0499535 16.7489 0.0330729
10026 1.75069E+9 957329 1.75069E+9 957329 93.6076 0.0511876 89.7731 0.0501281 16.7442 0.0330706
10027 1.74981E+9 956567 1.74981E+9 956567 94.0044 0.0513893 90.1783 0.0503325 16.7394 0.0330657
10028 1.74675E+9 955174 1.74675E+9 955174 94.2844 0.0515577 90.43 0.050493 16.7347 0.0330706
10029 1.74465E+9 954072 1.74465E+9 954072 94.6176 0.0517423 90.7597 0.0506765 16.73 0.0330713
10030 1.74296E+9 953038 1.74296E+9 953038 94.9738 0.051931 91.1022 0.0508617 16.7253 0.0330694
10031 1.7412E+9 952050 1.7412E+9 952050 95.3276 0.0521232 91.454 0.0510532 16.7205 0.033069
10032 1.73898E+9 950864 1.73898E+9 950864 95.6569 0.0523048 91.7845 0.051235 16.7158 0.0330695
10033 1.73692E+9 949788 1.73692E+9 949788 95.9967 0.0524933 92.0829 0.0514124 16.7111 0.0330704
10034 1.73484E+9 948682 1.73484E+9 948682 96.3365 0.0526808 92.4248 0.0516002 16.7063 0.0330709
10035 1.73251E+9 947446 1.73251E+9 947446 96.663 0.0528615 92.7551 0.0517818 16.7016 0.0330715
10036 1.73134E+9 946575 1.73134E+9 946575 97.0551 0.0530632 93.1151 0.0519745 16.6969 0.0330676
10037 1.72923E+9 945512 1.72923E+9 945512 97.3967 0.0532548 93.4346 0.0521604 16.6922 0.0330691
10038 1.72591E+9 944028 1.72591E+9 944028 97.6705 0.0534234 93.716 0.0523309 16.6874 0.0330749
10039 1.72464E+9 943114 1.72464E+9 943114 98.0613 0.0536245 94.0653 0.0525208 16.6827 0.033071
10040 1.72402E+9 942445 1.72402E+9 942445 98.4907 0.0538406 94.5218 0.0527446 16.678 0.0330653
10041 1.72283E+9 941518 1.72283E+9 941518 98.8892 0.0540425 94.8909 0.0529387 16.6732 0.0330604
10042 1.7188E+9 939906 1.7188E+9 939906 99.1248 0.0542055 95.098 0.0530929 16.6685 0.0330708
10043 1.71622E+9 938641 1.71622E+9 938641 99.4456 0.0543892 95.4239 0.0532784 16.6638 0.0330734
10044 1.71423E+9 937546 1.71423E+9 937546 99.8007 0.0545831 95.7702 0.05347 16.6591 0.0330733
10045 1.71361E+9 936874 1.71361E+9 936874 100.238 0.0548025 96.1892 0.0536843 16.6543 0.0330673
10046 1.71186E+9 935880 1.71186E+9 935880 100.61 0.055004 96.5454 0.053881 16.6496 0.0330667
10047 1.70943E+9 934636 1.70943E+9 934636 100.943 0.0551911 96.8691 0.0540658 16.6449 0.0330682
10048 1.70724E+9 933471 1.70724E+9 933471 101.291 0.0553834 97.2147 0.0542579 16.6401 0.0330688
10049 1.70524E+9 932417 1.70524E+9 932417 101.653 0.0555833 97.5495 0.0544499 16.6354 0.0330695
10050 1.70264E+9 931134 1.70264E+9 931134 101.979 0.0557699 97.8336 0.054625 16.6307 0.033072
10051 1.70104E+9 930191 1.70104E+9 930191 102.366 0.0559775 98.2501 0.0548411 16.626 0.0330708
10052 1.69934E+9 929179 1.69934E+9 929179 102.748 0.0561815 98.6227 0.0550421 16.6212 0.0330693
10053 1.69829E+9 928328 1.69829E+9 928328 103.171 0.0563961 99.0237 0.0552507 16.6165 0.0330643
10054 1.69474E+9 926843 1.69474E+9 926843 103.443 0.0565726 99.2795 0.0554219 16.6118 0.0330725
10055 1.69405E+9 926113 1.69405E+9 926113 103.891 0.056796 99.703 0.0556392 16.607 0.0330662
10056 1.69322E+9 925371 1.69322E+9 925371 104.332 0.0570194 100.137 0.0558613 16.6023 0.0330611
10057 1.68948E+9 923756 1.68948E+9 923756 104.595 0.0571898 100.378 0.0560249 16.5976 0.0330687
10058 1.68722E+9 922603 1.68722E+9 922603 104.951 0.0573891 100.743 0.0562266 16.5929 0.0330702
10059 1.68553E+9 921601 1.68553E+9 921601 105.343 0.0575986 101.107 0.0564286 16.5881 0.0330688
10060 1.68424E+9 920726 1.68424E+9 920726 105.761 0.0578166 101.526 0.0566471 16.5834 0.0330658
10061 1.68125E+9 919371 1.68125E+9 919371 106.073 0.058005 101.813 0.0568279 16.5787 0.0330708
10062 1.67964E+9 918380 1.67964E+9 918380 106.474 0.0582172 102.206 0.0570382 16.5739 0.0330688
10063 1.67801E+9 917452 1.67801E+9 917452 106.875 0.058434 102.59 0.0572507 16.5692 0.0330681
10064 1.6753E+9 916152 1.6753E+9 916152 107.208 0.0586278 102.932 0.057447 16.5645 0.0330714
10065 1.6724E+9 914825 1.6724E+9 914825 107.529 0.0588203 103.22 0.0576297 16.5598 0.0330761
10066 1.67173E+9 914069 1.67173E+9 914069 107.996 0.0590503 103.685 0.0578603 16.555 0.0330691
10067 1.66994E+9 913077 1.66994E+9 913077 108.392 0.0592657 104.04 0.0580642 16.5503 0.0330688
10068 1.66773E+9 911868 1.66773E+9 911868 108.762 0.0594679 104.413 0.0582671 16.5456 0.0330688
10069 1.66456E+9 910521 1.66456E+9 910521 109.069 0.0596613 104.737 0.0584649 16.5408 0.0330758
10070 1.66393E+9 909785 1.66393E+9 909785 109.544 0.0598956 105.154 0.0586831 16.5361 0.0330687
10071 1.66196E+9 908766 1.66196E+9 908766 109.934 0.060112 105.567 0.0589061 16.5314 0.0330697
10072 1.6604E+9 907793 1.6604E+9 907793 110.351 0.0603323 105.953 0.0591177 16.5267 0.0330675
10073 1.6575E+9 906414 1.6575E+9 906414 110.681 0.0605263 106.275 0.0593092 16.5219 0.0330713
10074 1.65615E+9 905568 1.65615E+9 905568 111.114 0.0607561 106.674 0.0595297 16.5172 0.0330693
10075 1.65474E+9 904619 1.65474E+9 904619 111.546 0.0609803 107.097 0.0597517 16.5125 0.0330661
10076 1.65111E+9 903099 1.65111E+9 903099 111.828 0.0611663 107.386 0.0599389 16.5077 0.0330746
10077 1.6513E+9 902621 1.6513E+9 902621 112.371 0.0614236 107.901 0.060189 16.503 0.033064
10078 1.6489E+9 901460 1.6489E+9 901460 112.74 0.0616354 108.247 0.0603948 16.4983 0.0330667
10079 1.64609E+9 900164 1.64609E+9 900164 113.081 0.0618386 108.578 0.0605947 16.4936 0.0330711
10080 1.64349E+9 898900 1.64349E+9 898900 113.437 0.0620444 108.94 0.0608023 16.4888 0.0330741
10081 1.64196E+9 897934 1.64196E+9 897934 113.869 0.0622714 109.352 0.0610238 16.4841 0.0330717
10082 1.64054E+9 897030 1.64054E+9 897030 114.31 0.0625035 109.752 0.0612451 16.4794 0.0330693
10083 1.63785E+9 895756 1.63785E+9 895756 114.663 0.0627106 110.106 0.0614515 16.4747 0.033073
10084 1.63659E+9 894887 1.63659E+9 894887 115.119 0.0629468 110.515 0.0616753 16.4699 0.0330696
10085 1.63389E+9 893605 1.63389E+9 893605 115.473 0.0631546 110.889 0.061888 16.4652 0.0330732
10086 1.63271E+9 892755 1.63271E+9 892755 115.936 0.0633934 111.337 0.0621234 16.4605 0.0330694
10087 1.63027E+9 891544 1.63027E+9 891544 116.312 0.0636076 111.709 0.0623362 16.4557 0.0330717
10088 1.6291E+9 890703 1.6291E+9 890703 116.779 0.0638487 112.181 0.0625787 16.451 0.033068
10089 1.62656E+9 889474 1.62656E+9 889474 117.15 0.0640627 112.524 0.0627853 16.4463 0.033071
10090 1.62504E+9 888546 1.62504E+9 888546 117.595 0.0642992 112.952 0.063017 16.4416 0.0330692
10091 1.62276E+9 887430 1.62276E+9 887430 117.987 0.0645229 113.345 0.0632408 16.4368 0.0330716
10092 1.62153E+9 886554 1.62153E+9 886554 118.456 0.0647646 113.773 0.0634719 16.4321 0.0330678
10093 1.61957E+9 885469 1.61957E+9 885469 118.873 0.064992 114.213 0.0637055 16.4274 0.0330676
10094 1.61699E+9 884238 1.61699E+9 884238 119.247 0.0652092 114.542 0.0639096 16.4226 0.0330709
10095 1.61423E+9 882989 1.61423E+9 882989 119.607 0.0654258 114.872 0.0641175 16.4179 0.0330758
10096 1.61381E+9 882330 1.61381E+9 882330 120.143 0.0656867 115.398 0.0643759 16.4132 0.0330677
10097 1.61069E+9 880934 1.61069E+9 880934 120.479 0.0658938 115.72 0.0645792 16.4085 0.0330735
10098 1.61006E+9 880205 1.61006E+9 880205 121.003 0.0661512 116.244 0.064837 16.4037 0.0330664
10099 1.60729E+9 878949 1.60729E+9 878949 121.367 0.0663699 116.595 0.0650521 16.399 0.0330712
10100 1.60569E+9 877989 1.60569E+9 877989 121.82 0.0666116 117.002 0.0652815 16.3943 0.0330697
10101 1.60315E+9 876805 1.60315E+9 876805 122.204 0.0668372 117.376 0.0655032 16.3895 0.0330735
10102 1.60174E+9 875848 1.60174E+9 875848 122.675 0.0670804 117.848 0.0657473 16.3848 0.03307
10103 1.59996E+9 874878 1.59996E+9 874878 123.12 0.0673238 118.278 0.0659867 16.3801 0.03307
10104 1.59824E+9 873841 1.59824E+9 873841 123.571 0.0675627 118.709 0.0662204 16.3754 0.0330682
10105 1.59738E+9 873132 1.59738E+9 873132 124.089 0.0678278 119.202 0.0664785 16.3706 0.0330637
10106 1.59413E+9 871689 1.59413E+9 871689 124.424 0.0680367 119.538 0.0666875 16.3659 0.03307
10107 1.59126E+9 870359 1.59126E+9 870359 124.789 0.0682547 119.894 0.0669033 16.3612 0.0330745
10108 1.59073E+9 869711 1.59073E+9 869711 125.338 0.0685272 120.443 0.0671758 16.3564 0.0330677
10109 1.58957E+9 868871 1.58957E+9 868871 125.841 0.0687856 120.877 0.0674153 16.3517 0.0330638
10110 1.58689E+9 867620 1.58689E+9 867620 126.224 0.0690119 121.272 0.0676447 16.347 0.0330679
10111 1.58505E+9 866564 1.58505E+9 866564 126.675 0.0692547 121.717 0.0678857 16.3423 0.0330669
10112 1.58342E+9 865618 1.58342E+9 865618 127.144 0.0695071 122.165 0.0681322 16.3375 0.033066
10113 1.58088E+9 864426 1.58088E+9 864426 127.542 0.0697403 122.537 0.0683579 16.3328 0.0330697
10114 1.57897E+9 863406 1.57897E+9 863406 127.991 0.0699881 122.975 0.0686031 16.3281 0.0330702
10115 1.57726E+9 862493 1.57726E+9 862493 128.459 0.0702455 123.431 0.0688573 16.3233 0.0330705
10116 1.57586E+9 861600 1.57586E+9 861600 128.954 0.0705054 123.917 0.0691142 16.3186 0.0330681
10117 1.57297E+9 860355 1.57297E+9 860355 129.327 0.0707371 124.299 0.0693483 16.3139 0.0330745
10118 1.57311E+9 859899 1.57311E+9 859899 129.951 0.0710347 124.863 0.0696301 16.3092 0.0330643
10119 1.57017E+9 858620 1.57017E+9 858620 130.324 0.0712655 125.233 0.0698597 16.3044 0.0330706
10120 1.56958E+9 857974 1.56958E+9 857974 130.892 0.0715491 125.78 0.0701383 16.2997 0.0330644
10121 1.56665E+9 856699 1.56665E+9 856699 131.267 0.0717816 126.172 0.0703747 16.295 0.0330707
10122 1.56531E+9 855798 1.56531E+9 855798 131.776 0.072046 126.658 0.0706339 16.2902 0.0330675
10123 1.56355E+9 854878 1.56355E+9 854878 132.251 0.0723093 127.112 0.0708903 16.2855 0.0330683
10124 1.56217E+9 854039 1.56217E+9 854039 132.762 0.072581 127.601 0.0711562 16.2808 0.0330666
10125 1.56105E+9 853234 1.56105E+9 853234 133.295 0.0728562 128.094 0.071421 16.2761 0.0330629
10126 1.55765E+9 851840 1.55765E+9 851840 133.635 0.0730817 128.414 0.0716395 16.2713 0.0330719
10127 1.55653E+9 851037 1.55653E+9 851037 134.171 0.073359 128.948 0.0719167 16.2666 0.0330683
10128 1.55475E+9 850063 1.55475E+9 850063 134.654 0.0736224 129.444 0.0721839 16.2619 0.0330682
10129 1.55268E+9 849043 1.55268E+9 849043 135.112 0.0738827 129.851 0.0724305 16.2571 0.0330704
10130 1.55143E+9 848199 1.55143E+9 848199 135.642 0.0741588 130.36 0.0727005 16.2524 0.0330673
10131 1.54756E+9 846674 1.54756E+9 846674 135.946 0.0743765 130.679 0.0729212 16.2477 0.0330788
10132 1.54827E+9 846339 1.54827E+9 846339 136.652 0.0746992 131.347 0.0732349 16.243 0.0330647
10133 1.54628E+9 845329 1.54628E+9 845329 137.124 0.0749639 131.804 0.0734947 16.2382 0.0330661
10134 1.54437E+9 844369 1.54437E+9 844369 137.604 0.0752337 132.252 0.0737564 16.2335 0.0330678
10135 1.54239E+9 843349 1.54239E+9 843349 138.078 0.0754986 132.724 0.0740205 16.2288 0.0330691
10136 1.54044E+9 842380 1.54044E+9 842380 138.557 0.0757696 133.189 0.0742876 16.224 0.033071
10137 1.54033E+9 841853 1.54033E+9 841853 139.204 0.0760809 133.829 0.0745978 16.2193 0.0330618
10138 1.53824E+9 840841 1.53824E+9 840841 139.674 0.0763497 134.293 0.074864 16.2146 0.0330643
10139 1.5359E+9 839796 1.5359E+9 839796 140.122 0.0766161 134.715 0.0751235 16.2099 0.033069
10140 1.5349E+9 839037 1.5349E+9 839037 140.695 0.0769098 135.263 0.0754103 16.2051 0.0330648
10141 1.53255E+9 837970 1.53255E+9 837970 141.146 0.0771763 135.696 0.0756715 16.2004 0.0330691
10142 1.53192E+9 837384 1.53192E+9 837384 141.756 0.0774874 136.286 0.0759776 16.1957 0.0330644
10143 1.52951E+9 836235 1.52951E+9 836235 142.203 0.0777478 136.721 0.0762345 16.191 0.0330677
10144 1.52721E+9 835189 1.52721E+9 835189 142.663 0.0780186 137.171 0.0765022 16.1862 0.0330718
10145 1.52515E+9 834110 1.52515E+9 834110 143.146 0.0782872 137.633 0.0767647 16.1815 0.0330727
10146 1.52374E+9 833346 1.52374E+9 833346 143.691 0.0785861 138.147 0.0770549 16.1768 0.0330729
10147 1.51961E+9 843498 1.51961E+9 843498 143.98 0.0799281 138.443 0.0783733 16.172 0.0333198
10148 1.46615E+9 1.05729E+6 1.46615E+9 1.05729E+6 139.559 0.100763 134.191 0.0988063 16.1674 0.0379887
10149 1.40771E+9 1.26543E+6 1.40771E+9 1.26543E+6 134.644 0.121051 129.478 0.118718 16.1626 0.0424026
10150 1.44896E+9 1.1074E+6 1.44896E+9 1.1074E+6 139.265 0.106297 133.972 0.104269 16.1577 0.0390837
10151 1.51102E+9 849153 1.51102E+9 849153 145.903 0.0819782 140.316 0.080388 16.1531 0.0335237
10152 1.51458E+9 828223 1.51458E+9 828223 146.938 0.0803504 141.287 0.0787902 16.1484 0.0330706
10153 1.51297E+9 827281 1.51297E+9 827281 147.477 0.0806397 141.81 0.079075 16.1437 0.0330694
10154 1.51201E+9 826607 1.51201E+9 826607 148.081 0.0809556 142.419 0.0793926 16.1389 0.0330665
10155 1.50938E+9 825380 1.50938E+9 825380 148.525 0.0812187 142.831 0.0796467 16.1342 0.0330706
10156 1.50888E+9 824833 1.50888E+9 824833 149.179 0.0815496 143.458 0.0799701 16.1295 0.0330652
10157 1.50551E+9 823446 1.50551E+9 823446 149.552 0.0817984 143.832 0.0802189 16.1248 0.0330744
10158 1.50531E+9 822948 1.50531E+9 822948 150.24 0.0821361 144.501 0.0805522 16.12 0.0330665
10159 1.50383E+9 822140 1.50383E+9 822140 150.805 0.0824445 145.05 0.0808566 16.1153 0.0330665
10160 1.5013E+9 820991 1.5013E+9 820991 151.264 0.0827195 145.505 0.0811293 16.1106 0.0330712
10161 1.50123E+9 820514 1.50123E+9 820514 151.974 0.0830632 146.158 0.0814581 16.1058 0.0330624
10162 1.49879E+9 819429 1.49879E+9 819429 152.446 0.0833466 146.631 0.0817415 16.1011 0.0330674
10163 1.49666E+9 818436 1.49666E+9 818436 152.95 0.0836402 147.101 0.0820255 16.0964 0.033071
10164 1.49551E+9 817667 1.49551E+9 817667 153.558 0.0839573 147.683 0.0823356 16.0917 0.033068
10165 1.49352E+9 816678 1.49352E+9 816678 154.081 0.0842535 148.217 0.0826351 16.0869 0.03307
10166 1.49194E+9 815788 1.49194E+9 815788 154.646 0.0845606 148.79 0.0829444 16.0822 0.0330696
10167 1.49028E+9 814867 1.49028E+9 814867 155.206 0.0848653 149.308 0.0832374 16.0775 0.0330693
10168 1.48879E+9 814034 1.48879E+9 814034 155.787 0.0851807 149.89 0.0835531 16.0727 0.0330689
10169 1.48715E+9 813155 1.48715E+9 813155 156.352 0.0854915 150.404 0.0838488 16.068 0.0330693
10170 1.48831E+9 813036 1.48831E+9 813036 157.216 0.0858843 151.245 0.0842375 16.0633 0.0330539
10171 1.48549E+9 811833 1.48549E+9 811833 157.662 0.0861637 151.674 0.0845117 16.0586 0.0330608
10172 1.48244E+9 810556 1.48244E+9 810556 158.084 0.0864362 152.098 0.084784 16.0538 0.0330688
10173 1.48102E+9 809714 1.48102E+9 809714 158.682 0.0867554 152.66 0.085094 16.0491 0.0330674
10174 1.47891E+9 808669 1.47891E+9 808669 159.205 0.0870541 153.151 0.0853823 16.0444 0.0330697
10175 1.47624E+9 807571 1.47624E+9 807571 159.671 0.087348 153.604 0.0856721 16.0396 0.0330771
10176 1.47683E+9 807279 1.47683E+9 807279 160.492 0.08773 154.403 0.0860498 16.0349 0.0330645
10177 1.47465E+9 806208 1.47465E+9 806208 161.015 0.0880289 154.931 0.0863496 16.0302 0.033067
10178 1.47293E+9 805333 1.47293E+9 805333 161.59 0.0883501 155.446 0.0866541 16.0255 0.0330683
10179 1.47084E+9 804292 1.47084E+9 804292 162.124 0.0886541 156.008 0.0869657 16.0207 0.0330704
10180 1.46944E+9 803493 1.46944E+9 803493 162.739 0.088986 156.566 0.087282 16.016 0.0330697
10181 1.46845E+9 802783 1.46845E+9 802783 163.4 0.0893288 157.21 0.0876207 16.0113 0.0330662
10182 1.46716E+9 802013 1.46716E+9 802013 164.029 0.0896658 157.814 0.0879499 16.0065 0.0330649
10183 1.46434E+9 800814 1.46434E+9 800814 164.49 0.0899563 158.295 0.088246 16.0018 0.033072
10184 1.46324E+9 800048 1.46324E+9 800048 165.146 0.0902959 158.916 0.0885769 15.9971 0.0330686
10185 1.46065E+9 798918 1.46065E+9 798918 165.635 0.0905961 159.418 0.0888791 15.9924 0.0330745
10186 1.46033E+9 798414 1.46033E+9 798414 166.384 0.090968 160.129 0.0892423 15.9876 0.0330677
10187 1.45906E+9 797644 1.45906E+9 797644 167.027 0.091311 160.712 0.089569 15.9829 0.0330661
10188 1.45748E+9 796729 1.45748E+9 796729 167.636 0.0916383 161.311 0.089893 15.9782 0.0330651
10189 1.45609E+9 795909 1.45609E+9 795909 168.27 0.0919781 161.934 0.0902297 15.9734 0.0330638
10190 1.45427E+9 795011 1.45427E+9 795011 168.857 0.0923095 162.473 0.090548 15.9687 0.0330658
10191 1.45312E+9 794237 1.45312E+9 794237 169.523 0.0926567 163.166 0.0909028 15.964 0.0330628
10192 1.45027E+9 793015 1.45027E+9 793015 169.992 0.0929529 163.597 0.091188 15.9593 0.0330698
10193 1.44986E+9 792486 1.44986E+9 792486 170.749 0.0933312 164.359 0.091568 15.9545 0.0330635
10194 1.44814E+9 791576 1.44814E+9 791576 171.355 0.0936655 164.917 0.0918887 15.9498 0.0330641
10195 1.44584E+9 790511 1.44584E+9 790511 171.894 0.093983 165.426 0.0921975 15.9451 0.0330681
10196 1.44396E+9 789566 1.44396E+9 789566 172.484 0.0943154 166.004 0.0925272 15.9404 0.0330698
10197 1.44293E+9 788890 1.44293E+9 788890 173.177 0.0946815 166.671 0.0928863 15.9356 0.0330675
10198 1.44113E+9 788292 1.44113E+9 788292 173.781 0.0950581 167.254 0.0932558 15.9309 0.0330756
10199 1.43251E+9 797476 1.43251E+9 797476 173.558 0.0966294 167.058 0.0947949 15.9262 0.0333685
10200 1.37338E+9 895536 1.37338E+9 895536 167.166 0.109082 160.937 0.107012 15.9216 0.0361193
10201 1.23823E+9 1.13313E+6 1.23823E+9 1.13313E+6 151.418 0.138697 145.727 0.136076 15.9169 0.0427914
10202 1.17422E+9 1.23404E+6 1.17422E+9 1.23404E+6 144.308 0.151622 138.893 0.14878 15.9119 0.0458435
10203 1.2779E+9 1.05846E+6 1.2779E+9 1.05846E+6 157.817 0.130576 151.926 0.128114 15.907 0.04069
10204 1.39193E+9 846236 1.39193E+9 846236 172.692 0.104938 166.242 0.102943 15.9024 0.0348657
10205 1.42629E+9 786467 1.42629E+9 786467 177.781 0.0980252 171.142 0.0961725 15.8978 0.0332083
10206 1.42924E+9 781389 1.42924E+9 781389 178.993 0.097858 172.309 0.0960132 15.8931 0.0330671
10207 1.42724E+9 780255 1.42724E+9 780255 179.588 0.0981794 172.866 0.0963241 15.8883 0.0330663
10208 1.42559E+9 779383 1.42559E+9 779383 180.231 0.0985346 173.526 0.0966844 15.8836 0.0330669
10209 1.42438E+9 778577 1.42438E+9 778577 180.931 0.0988989 174.176 0.0970359 15.8789 0.0330639
10210 1.42246E+9 777636 1.42246E+9 777636 181.543 0.0992474 174.788 0.0973832 15.8742 0.0330662
10211 1.42151E+9 776957 1.42151E+9 776957 182.282 0.0996309 175.509 0.0977627 15.8694 0.0330628
10212 1.4194E+9 775969 1.4194E+9 775969 182.875 0.0999756 176.076 0.0980995 15.8647 0.0330662
10213 1.41743E+9 775022 1.41743E+9 775022 183.487 0.100327 176.652 0.0984405 15.86 0.033069
10214 1.41572E+9 774094 1.41572E+9 774094 184.134 0.100682 177.274 0.098789 15.8552 0.0330692
10215 1.41501E+9 773474 1.41501E+9 773474 184.913 0.101078 178.027 0.0991786 15.8505 0.0330643
10216 1.41307E+9 772537 1.41307E+9 772537 185.535 0.101434 178.65 0.099534 15.8458 0.0330668
10217 1.41091E+9 771454 1.41091E+9 771454 186.129 0.101772 179.202 0.0998601 15.8411 0.033069
10218 1.41035E+9 770922 1.41035E+9 770922 186.938 0.102184 180.017 0.100274 15.8363 0.0330641
10219 1.40867E+9 770015 1.40867E+9 770015 187.599 0.102547 180.656 0.100631 15.8316 0.0330644
10220 1.4069E+9 769113 1.4069E+9 769113 188.253 0.102912 181.268 0.100985 15.8269 0.0330657
10221 1.40508E+9 768192 1.40508E+9 768192 188.899 0.103276 181.878 0.101339 15.8221 0.0330674
10222 1.4034E+9 767289 1.4034E+9 767289 189.569 0.103644 182.53 0.101702 15.8174 0.0330677
10223 1.40251E+9 766630 1.40251E+9 766630 190.346 0.104046 183.324 0.102109 15.8127 0.033064
10224 1.39921E+9 765324 1.39921E+9 765324 190.798 0.104361 183.762 0.102419 15.808 0.0330747
10225 1.39956E+9 764975 1.39956E+9 764975 191.75 0.104808 184.68 0.102858 15.8032 0.0330631
10226 1.39738E+9 763929 1.39738E+9 763929 192.36 0.105161 185.261 0.103203 15.7985 0.0330662
10227 1.396E+9 763157 1.396E+9 763157 193.079 0.105552 185.945 0.103583 15.7938 0.0330659
10228 1.39361E+9 762075 1.39361E+9 762075 193.664 0.105902 186.504 0.103926 15.789 0.0330707
10229 1.39294E+9 761448 1.39294E+9 761448 194.487 0.106316 187.296 0.104332 15.7843 0.0330651
10230 1.39045E+9 760356 1.39045E+9 760356 195.059 0.106667 187.831 0.104672 15.7796 0.033071
10231 1.38973E+9 759703 1.38973E+9 759703 195.882 0.10708 188.627 0.105079 15.7749 0.0330653
10232 1.38805E+9 758862 1.38805E+9 758862 196.573 0.107469 189.304 0.105464 15.7701 0.033067
10233 1.38626E+9 757942 1.38626E+9 757942 197.249 0.107847 190.016 0.105852 15.7654 0.0330683
10234 1.38535E+9 757247 1.38535E+9 757247 198.055 0.108259 190.766 0.106248 15.7607 0.0330639
10235 1.38433E+9 756554 1.38433E+9 756554 198.847 0.108673 191.517 0.106652 15.7559 0.033061
10236 1.38166E+9 755366 1.38166E+9 755366 199.404 0.109016 192.058 0.106989 15.7512 0.0330669
10237 1.37959E+9 754421 1.37959E+9 754421 200.048 0.109396 192.705 0.107369 15.7465 0.033071
10238 1.37892E+9 753826 1.37892E+9 753826 200.9 0.109828 193.536 0.107797 15.7418 0.033066
10239 1.37809E+9 753164 1.37809E+9 753164 201.73 0.110251 194.306 0.108204 15.737 0.0330614
10240 1.37552E+9 751997 1.37552E+9 751997 202.309 0.110602 194.87 0.108549 15.7323 0.0330666
10241 1.37378E+9 751135 1.37378E+9 751135 203.01 0.110999 195.524 0.108934 15.7276 0.0330686
10242 1.37221E+9 750293 1.37221E+9 750293 203.74 0.1114 196.281 0.109342 15.7228 0.0330689
10243 1.37058E+9 749408 1.37058E+9 749408 204.461 0.111796 196.975 0.10973 15.7181 0.0330691
10244 1.36967E+9 748747 1.36967E+9 748747 205.294 0.112227 197.768 0.11015 15.7134 0.0330655
10245 1.36732E+9 747658 1.36732E+9 747658 205.914 0.112595 198.361 0.110511 15.7087 0.0330698
10246 1.36556E+9 746805 1.36556E+9 746805 206.622 0.112999 199.05 0.11091 15.7039 0.0330723
10247 1.36448E+9 746113 1.36448E+9 746113 207.437 0.11343 199.817 0.111326 15.6992 0.03307
10248 1.36433E+9 745656 1.36433E+9 745656 208.398 0.113897 200.81 0.111805 15.6945 0.0330617
10249 1.36213E+9 744678 1.36213E+9 744678 209.047 0.114287 201.383 0.112173 15.6898 0.0330667
10250 1.35944E+9 743532 1.35944E+9 743532 209.623 0.114652 202.001 0.112548 15.685 0.0330739
10251 1.359E+9 743034 1.359E+9 743034 210.551 0.115119 202.856 0.112996 15.6803 0.0330681
10252 1.35896E+9 742643 1.35896E+9 742643 211.541 0.115603 203.851 0.113482 15.6756 0.0330599
10253 1.3563E+9 741483 1.3563E+9 741483 212.128 0.11597 204.394 0.113837 15.6708 0.0330665
10254 1.35543E+9 740855 1.35543E+9 740855 212.995 0.11642 205.255 0.114285 15.6661 0.0330631
10255 1.35353E+9 739970 1.35353E+9 739970 213.706 0.116832 205.941 0.114691 15.6614 0.0330665
10256 1.35255E+9 739284 1.35255E+9 739284 214.564 0.117278 206.759 0.115124 15.6567 0.0330631
10257 1.35108E+9 738521 1.35108E+9 738521 215.346 0.117712 207.489 0.115545 15.6519 0.033064
10258 1.34849E+9 737422 1.34849E+9 737422 215.952 0.118094 208.093 0.115926 15.6472 0.0330712
10259 1.34812E+9 736918 1.34812E+9 736918 216.916 0.118572 209.057 0.116405 15.6425 0.0330643
10260 1.3468E+9 736139 1.3468E+9 736139 217.73 0.119008 209.838 0.116832 15.6377 0.0330632
10261 1.34454E+9 735151 1.34454E+9 735151 218.395 0.119412 210.424 0.117212 15.633 0.0330687
10262 1.34307E+9 734330 1.34307E+9 734330 219.19 0.119844 211.21 0.117642 15.6283 0.0330683
10263 1.34275E+9 733873 1.34275E+9 733873 220.177 0.120337 212.196 0.118136 15.6236 0.0330619
10264 1.34023E+9 732785 1.34023E+9 732785 220.804 0.120728 212.804 0.11852 15.6188 0.0330685
10265 1.33855E+9 731918 1.33855E+9 731918 221.573 0.121156 213.549 0.118943 15.6141 0.0330696
10266 1.33747E+9 731236 1.33747E+9 731236 222.444 0.121617 214.419 0.119404 15.6094 0.0330675
10267 1.3365E+9 730601 1.3365E+9 730601 223.337 0.122087 215.207 0.119845 15.6046 0.0330651
10268 1.33491E+9 729770 1.33491E+9 729770 224.129 0.122527 216.015 0.120289 15.5999 0.033066
10269 1.33305E+9 728880 1.33305E+9 728880 224.876 0.122957 216.742 0.120713 15.5952 0.0330689
10270 1.33166E+9 728107 1.33166E+9 728107 225.706 0.123409 217.547 0.121157 15.5905 0.0330686
10271 1.33041E+9 727351 1.33041E+9 727351 226.564 0.123865 218.372 0.121606 15.5857 0.0330669
10272 1.32744E+9 726163 1.32744E+9 726163 227.128 0.124249 218.903 0.121978 15.581 0.033077
10273 1.32893E+9 726176 1.32893E+9 726176 228.462 0.12484 220.205 0.122563 15.5763 0.0330586
10274 1.32694E+9 725260 1.32694E+9 725260 229.202 0.125274 220.916 0.122989 15.5715 0.0330625
10275 1.3245E+9 724166 1.3245E+9 724166 229.863 0.125677 221.586 0.123395 15.5668 0.033068
10276 1.32358E+9 723605 1.32358E+9 723605 230.792 0.126175 222.421 0.123866 15.5621 0.0330668
10277 1.32019E+9 724248 1.32019E+9 724248 231.293 0.126888 222.94 0.124576 15.5574 0.033124
10278 1.31244E+9 742108 1.31244E+9 742108 231.022 0.13065 222.689 0.128272 15.5526 0.0336299
10279 1.27996E+9 825706 1.27996E+9 825706 226.361 0.146105 218.26 0.143469 15.548 0.0359242
10280 1.21666E+9 978513 1.21666E+9 978513 216.18 0.173971 208.377 0.170795 15.5433 0.0401125
10281 1.17484E+9 1.06137E+6 1.17484E+9 1.06137E+6 209.757 0.189501 202.198 0.186055 15.5384 0.042507
10282 1.20832E+9 985110 1.20832E+9 985110 216.778 0.176625 208.961 0.173407 15.5336 0.0403738
10283 1.26979E+9 835861 1.26979E+9 835861 228.881 0.150573 220.662 0.147844 15.5289 0.0362785
10284 1.30284E+9 744317 1.30284E+9 744317 235.939 0.134764 227.428 0.132311 15.5242 0.0338006
10285 1.30903E+9 719436 1.30903E+9 719436 238.18 0.130899 229.654 0.128535 15.5195 0.0331538
10286 1.30864E+9 715758 1.30864E+9 715758 239.237 0.13085 230.661 0.128483 15.5148 0.0330741
10287 1.30775E+9 714945 1.30775E+9 714945 240.206 0.131321 231.601 0.128948 15.5101 0.0330666
10288 1.30585E+9 714032 1.30585E+9 714032 240.994 0.131775 232.368 0.129396 15.5053 0.0330695
10289 1.30547E+9 713527 1.30547E+9 713527 242.066 0.132305 233.411 0.129919 15.5006 0.0330626
10290 1.30385E+9 712727 1.30385E+9 712727 242.912 0.132784 234.202 0.130382 15.4959 0.0330645
10291 1.30226E+9 711859 1.30226E+9 711859 243.766 0.133251 235.043 0.130845 15.4912 0.0330646
10292 1.30046E+9 711022 1.30046E+9 711022 244.582 0.133724 235.834 0.131311 15.4864 0.033068
10293 1.29873E+9 710145 1.29873E+9 710145 245.413 0.134193 236.625 0.131768 15.4817 0.0330697
10294 1.29679E+9 709249 1.29679E+9 709249 246.209 0.134658 237.404 0.132228 15.477 0.0330735
10295 1.29696E+9 708902 1.29696E+9 708902 247.408 0.135231 238.599 0.132802 15.4722 0.0330633
10296 1.29584E+9 708205 1.29584E+9 708205 248.365 0.135738 239.506 0.133295 15.4675 0.0330613
10297 1.29329E+9 707112 1.29329E+9 707112 249.051 0.136171 240.177 0.133722 15.4628 0.0330683
10298 1.29155E+9 706243 1.29155E+9 706243 249.895 0.136648 240.956 0.134181 15.4581 0.0330702
10299 1.29072E+9 705643 1.29072E+9 705643 250.918 0.137179 242.009 0.134722 15.4533 0.0330668
10300 1.28872E+9 704711 1.28872E+9 704711 251.718 0.137647 242.794 0.135187 15.4486 0.0330706
10301 1.28823E+9 704172 1.28823E+9 704172 252.816 0.138194 243.817 0.135713 15.4439 0.0330642
10302 1.28607E+9 703234 1.28607E+9 703234 253.587 0.138664 244.552 0.136172 15.4391 0.0330699
10303 1.28469E+9 702457 1.28469E+9 702457 254.516 0.139167 245.472 0.136673 15.4344 0.0330694
10304 1.28425E+9 701944 1.28425E+9 701944 255.634 0.139724 246.533 0.137215 15.4297 0.0330629
10305 1.28106E+9 700687 1.28106E+9 700687 256.207 0.140135 247.068 0.137613 15.425 0.0330745
10306 1.28103E+9 700286 1.28103E+9 700286 257.415 0.140719 248.259 0.138194 15.4202 0.0330654
10307 1.28094E+9 699884 1.28094E+9 699884 258.616 0.141304 249.427 0.138771 15.4155 0.0330571
10308 1.27797E+9 698702 1.27797E+9 698702 259.241 0.141735 250.042 0.139197 15.4108 0.0330675
10309 1.27626E+9 697851 1.27626E+9 697851 260.121 0.142233 250.85 0.139676 15.4061 0.0330695
10310 1.27608E+9 697422 1.27608E+9 697422 261.317 0.142819 252.055 0.140265 15.4013 0.0330616
10311 1.27434E+9 696573 1.27434E+9 696573 262.196 0.143321 252.925 0.140765 15.3966 0.0330641
10312 1.27252E+9 695670 1.27252E+9 695670 263.064 0.143814 253.704 0.141232 15.3919 0.0330662
10313 1.27124E+9 694928 1.27124E+9 694928 264.045 0.144342 254.677 0.141757 15.3871 0.0330652
10314 1.26987E+9 694202 1.26987E+9 694202 265.011 0.144874 255.64 0.14229 15.3824 0.0330657
10315 1.2678E+9 693235 1.2678E+9 693235 265.833 0.145358 256.39 0.142752 15.3777 0.0330697
10316 1.26692E+9 692607 1.26692E+9 692607 266.906 0.145915 257.446 0.143306 15.373 0.0330663
10317 1.26564E+9 691917 1.26564E+9 691917 267.902 0.14646 258.434 0.143849 15.3682 0.0330664
10318 1.26328E+9 690847 1.26328E+9 690847 268.669 0.146927 259.186 0.144311 15.3635 0.0330717
10319 1.26249E+9 690255 1.26249E+9 690255 269.774 0.147496 260.279 0.144879 15.3588 0.0330678
10320 1.26154E+9 689613 1.26154E+9 689613 270.771 0.148016 261.227 0.145384 15.3543 0.0330649
10321 1.25856E+9 688453 1.25856E+9 688453 271.169 0.148334 261.612 0.145697 15.3505 0.0330762
10322 1.25851E+9 688035 1.25851E+9 688035 272.11 0.148764 262.517 0.146118 15.347 0.0330668
10323 1.25729E+9 687309 1.25729E+9 687309 272.8 0.149129 263.19 0.146479 15.3435 0.0330654
10324 1.25674E+9 686781 1.25674E+9 686781 273.639 0.149538 264.028 0.146889 15.34 0.0330599
10325 1.25403E+9 685676 1.25403E+9 685676 274.007 0.149821 264.399 0.147171 15.3365 0.0330689
10326 1.25337E+9 685090 1.25337E+9 685090 274.824 0.150218 265.161 0.147553 15.333 0.0330635
10327 1.25126E+9 684184 1.25126E+9 684184 275.325 0.150546 265.672 0.147883 15.3295 0.0330695
10328 1.2505E+9 683559 1.2505E+9 683559 276.121 0.150936 266.457 0.148271 15.326 0.0330645
10329 1.24924E+9 682865 1.24924E+9 682865 276.811 0.151312 267.057 0.148622 15.3225 0.0330644
10330 1.24753E+9 681976 1.24753E+9 681976 277.403 0.151646 267.684 0.148966 15.319 0.0330655
10331 1.24666E+9 681385 1.24666E+9 681385 278.182 0.152046 268.42 0.149354 15.3155 0.0330627
10332 1.24529E+9 680618 1.24529E+9 680618 278.851 0.152408 269.088 0.149716 15.312 0.0330622
10333 1.24349E+9 679755 1.24349E+9 679755 279.426 0.152749 269.675 0.150062 15.3084 0.0330652
10334 1.24165E+9 678880 1.24165E+9 678880 279.992 0.153088 270.216 0.150393 15.3049 0.0330683
10335 1.24047E+9 678178 1.24047E+9 678178 280.708 0.153466 270.836 0.150743 15.3014 0.0330669
10336 1.23843E+9 677229 1.23843E+9 677229 281.229 0.153789 271.375 0.151072 15.2979 0.033071
10337 1.23791E+9 676715 1.23791E+9 676715 282.097 0.154212 272.284 0.151505 15.2944 0.0330654
10338 1.2361E+9 675842 1.2361E+9 675842 282.674 0.154553 272.809 0.151833 15.2909 0.0330682
10339 1.23464E+9 675042 1.23464E+9 675042 283.331 0.154912 273.444 0.152186 15.2874 0.0330682
10340 1.23401E+9 674503 1.23401E+9 674503 284.181 0.155332 274.223 0.152586 15.2839 0.0330634
10341 1.23215E+9 673620 1.23215E+9 673620 284.749 0.155673 274.839 0.15294 15.2804 0.0330667
10342 1.23096E+9 672919 1.23096E+9 672919 285.472 0.156056 275.513 0.153309 15.2769 0.0330654
10343 1.23014E+9 672319 1.23014E+9 672319 286.282 0.156465 276.293 0.15371 15.2734 0.0330618
10344 1.22806E+9 671383 1.22806E+9 671383 286.801 0.156795 276.794 0.154036 15.2699 0.0330667
10345 1.22682E+9 670663 1.22682E+9 670663 287.517 0.157177 277.491 0.154413 15.2664 0.0330657
10346 1.22502E+9 669821 1.22502E+9 669821 288.103 0.15753 278.076 0.154763 15.2629 0.0330691
10347 1.22431E+9 669217 1.22431E+9 669217 288.945 0.15794 278.906 0.155174 15.2594 0.0330639
10348 1.22318E+9 668526 1.22318E+9 668526 289.693 0.158331 279.621 0.155556 15.2559 0.0330621
10349 1.222E+9 667864 1.222E+9 667864 290.43 0.158729 280.31 0.155939 15.2524 0.0330615
10350 1.21978E+9 666842 1.21978E+9 666842 290.919 0.159043 280.826 0.15626 15.2489 0.0330663
10351 1.21821E+9 666083 1.21821E+9 666083 291.565 0.15942 281.475 0.156637 15.2454 0.0330688
10352 1.21767E+9 665544 1.21767E+9 665544 292.459 0.159849 282.291 0.157047 15.2419 0.0330627
10353 1.21623E+9 664748 1.21623E+9 664748 293.137 0.160218 282.948 0.157408 15.2384 0.0330625
10354 1.21422E+9 663843 1.21422E+9 663843 293.68 0.160562 283.515 0.157759 15.2349 0.0330674
10355 1.21338E+9 663269 1.21338E+9 663269 294.506 0.160986 284.311 0.158176 15.2314 0.0330645
10356 1.21158E+9 662406 1.21158E+9 662406 295.101 0.161341 284.909 0.158531 15.2279 0.0330675
10357 1.21075E+9 661872 1.21075E+9 661872 295.935 0.161777 285.685 0.158951 15.2244 0.0330655
10358 1.20917E+9 661074 1.20917E+9 661074 296.585 0.162149 286.343 0.159325 15.2209 0.0330672
10359 1.20785E+9 660342 1.20785E+9 660342 297.303 0.162538 287.012 0.159699 15.2174 0.0330668
10360 1.20664E+9 659678 1.20664E+9 659678 298.047 0.162944 287.775 0.160112 15.2139 0.0330668
10361 1.2046E+9 658759 1.2046E+9 658759 298.586 0.163288 288.283 0.160446 15.2104 0.0330718
10362 1.2039E+9 658224 1.2039E+9 658224 299.46 0.163728 289.114 0.160874 15.2069 0.0330679
10363 1.20331E+9 657736 1.20331E+9 657736 300.365 0.164181 289.98 0.161318 15.2033 0.0330637
10364 1.20199E+9 656979 1.20199E+9 656979 301.087 0.164567 290.629 0.161684 15.1998 0.0330629
10365 1.20047E+9 656239 1.20047E+9 656239 301.763 0.164959 291.403 0.162102 15.1963 0.0330651
10366 1.19891E+9 655433 1.19891E+9 655433 302.428 0.165335 292.004 0.162461 15.1928 0.0330663
10367 1.19743E+9 654691 1.19743E+9 654691 303.116 0.165727 292.677 0.162848 15.1893 0.033068
10368 1.19587E+9 653901 1.19587E+9 653901 303.783 0.166108 293.267 0.163208 15.1858 0.0330696
10369 1.19441E+9 653193 1.19441E+9 653193 304.477 0.166511 293.979 0.163616 15.1823 0.0330719
10370 1.1938E+9 652633 1.1938E+9 652633 305.388 0.166952 294.879 0.164054 15.1788 0.0330662
10371 1.19253E+9 651938 1.19253E+9 651938 306.134 0.167359 295.65 0.16447 15.1753 0.0330662
10372 1.19042E+9 651035 1.19042E+9 651035 306.664 0.167714 296.098 0.164799 15.1718 0.0330725
10373 1.18963E+9 650466 1.18963E+9 650466 307.538 0.168155 296.983 0.165246 15.1683 0.033069
10374 1.18896E+9 649934 1.18896E+9 649934 308.443 0.168608 297.822 0.16568 15.1648 0.0330648
10375 1.1873E+9 649134 1.1873E+9 649134 309.093 0.16899 298.524 0.166076 15.1613 0.0330675
10376 1.18696E+9 648696 1.18696E+9 648696 310.088 0.16947 299.49 0.166547 15.1578 0.0330612
10377 1.18432E+9 647617 1.18432E+9 647617 310.485 0.169782 299.873 0.166855 15.1543 0.0330705
10378 1.18374E+9 647109 1.18374E+9 647109 311.424 0.170244 300.734 0.167297 15.1508 0.0330655
10379 1.18253E+9 646413 1.18253E+9 646413 312.195 0.170658 301.468 0.1677 15.1473 0.0330647
10380 1.18136E+9 645729 1.18136E+9 645729 312.981 0.171075 302.28 0.168126 15.1438 0.0330636
10381 1.18029E+9 645132 1.18029E+9 645132 313.795 0.171516 303.075 0.168562 15.1403 0.0330632
10382 1.17855E+9 644302 1.17855E+9 644302 314.431 0.171897 303.677 0.168932 15.1368 0.0330664
10383 1.17638E+9 643335 1.17638E+9 643335 314.954 0.172242 304.174 0.169269 15.1333 0.033072
10384 1.17593E+9 642905 1.17593E+9 642905 315.939 0.172731 305.121 0.169747 15.1298 0.0330672
10385 1.17539E+9 642391 1.17539E+9 642391 316.902 0.173198 306.102 0.170221 15.1263 0.0330616
10386 1.17388E+9 641643 1.17388E+9 641643 317.607 0.173604 306.808 0.170628 15.1228 0.0330636
10387 1.17182E+9 640725 1.17182E+9 640725 318.162 0.173964 307.326 0.170975 15.1193 0.0330689
10388 1.17087E+9 640107 1.17087E+9 640107 319.019 0.174406 308.146 0.171409 15.1158 0.0330664
10389 1.16953E+9 639418 1.16953E+9 639418 319.774 0.17483 308.856 0.171819 15.1123 0.0330675
10390 1.16815E+9 638676 1.16815E+9 638676 320.516 0.17524 309.589 0.172228 15.1088 0.0330679
10391 1.1661E+9 637743 1.1661E+9 637743 321.077 0.175598 310.161 0.172586 15.1052 0.0330728
10392 1.16669E+9 637602 1.16669E+9 637602 322.368 0.176175 311.387 0.173149 15.1017 0.0330607
10393 1.1646E+9 636685 1.1646E+9 636685 322.919 0.176539 311.945 0.173515 15.0982 0.0330666
10394 1.16283E+9 635856 1.16283E+9 635856 323.56 0.176928 312.569 0.173896 15.0947 0.0330701
10395 1.16184E+9 635251 1.16184E+9 635251 324.419 0.17738 313.376 0.174336 15.0912 0.0330685
10396 1.16066E+9 634565 1.16066E+9 634565 325.226 0.17781 314.166 0.17476 15.0877 0.0330675
10397 1.15835E+9 633610 1.15835E+9 633610 325.72 0.178166 314.664 0.175119 15.0842 0.0330754
10398 1.15781E+9 633067 1.15781E+9 633067 326.707 0.178638 315.619 0.175581 15.0807 0.0330691
10399 1.15677E+9 632459 1.15677E+9 632459 327.561 0.179092 316.517 0.176047 15.0772 0.033068
10400 1.15612E+9 631945 1.15612E+9 631945 328.527 0.179575 317.384 0.176504 15.0737 0.0330638
