# Instrument-source: 'mcstasscript_soleil_rock_111.instr'
# Date: Fri Jan 27 01 30 2023
# Ncount: 10000000
# Numpoints: 1401
# Param: Etohit = 6300
# type: multiarray_1d(1401)
# title: Scan of Etohit
# xlabel: 'Etohit'
# ylabel: 'Intensity'
# xvars: Etohit
# yvars: (EnergyMonitor_before_sample_I,EnergyMonitor_before_sample_ERR) (e_repartition_after_m2b_I,e_repartition_after_m2b_ERR) (EnergyMonitor_after_sample_I,EnergyMonitor_after_sample_ERR) (psd_monitor_I,psd_monitor_ERR) (absorption_coefficient_I,absorption_coefficient_ERR)
# xlimits: 6300 7700
# filename: mccode.dat
# variables: Etohit EnergyMonitor_before_sample_I EnergyMonitor_before_sample_ERR e_repartition_after_m2b_I e_repartition_after_m2b_ERR EnergyMonitor_after_sample_I EnergyMonitor_after_sample_ERR psd_monitor_I psd_monitor_ERR absorption_coefficient_I absorption_coefficient_ERR
6300 1.27614E+8 62931 1.27614E+8 62931 1.71609E+6 846.264 1.37476E+6 757.422 4.30896 0.031405
6301 1.27361E+8 62841.5 1.27361E+8 62841.5 1.71595E+6 846.673 1.37478E+6 757.825 4.30706 0.0314138
6302 1.27288E+8 62796.7 1.27288E+8 62796.7 1.71825E+6 847.682 1.37649E+6 758.7 4.30515 0.0314115
6303 1.27075E+8 62719 1.27075E+8 62719 1.71864E+6 848.25 1.37724E+6 759.314 4.30324 0.0314184
6304 1.26889E+8 62644.3 1.26889E+8 62644.3 1.71939E+6 848.855 1.378E+6 759.908 4.30134 0.0314227
6305 1.26796E+8 62595.9 1.26796E+8 62595.9 1.72142E+6 849.818 1.37913E+6 760.621 4.29943 0.0314221
6306 1.26589E+8 62514.8 1.26589E+8 62514.8 1.72188E+6 850.336 1.37957E+6 761.106 4.29753 0.0314274
6307 1.26516E+8 62470 1.26516E+8 62470 1.72418E+6 851.347 1.38143E+6 762.023 4.29562 0.0314252
6308 1.26179E+8 62359.1 1.26179E+8 62359.1 1.72286E+6 851.458 1.38078E+6 762.26 4.29372 0.0314392
6309 1.26106E+8 62314.6 1.26106E+8 62314.6 1.72515E+6 852.474 1.38248E+6 763.111 4.29181 0.031437
6310 1.25931E+8 62241.7 1.25931E+8 62241.7 1.72605E+6 853.1 1.38325E+6 763.694 4.2899 0.0314405
6311 1.25645E+8 62145.6 1.25645E+8 62145.6 1.7254E+6 853.408 1.38351E+6 764.167 4.288 0.031452
6312 1.25498E+8 62082.1 1.25498E+8 62082.1 1.72668E+6 854.163 1.38461E+6 764.876 4.28609 0.0314542
6313 1.25366E+8 62025.4 1.25366E+8 62025.4 1.72815E+6 855.011 1.3853E+6 765.478 4.28419 0.0314565
6314 1.25241E+8 61970.4 1.25241E+8 61970.4 1.72972E+6 855.883 1.38719E+6 766.446 4.28228 0.0314582
6315 1.25027E+8 61893.1 1.25027E+8 61893.1 1.73005E+6 856.445 1.38714E+6 766.879 4.28037 0.0314655
6316 1.24953E+8 61850.5 1.24953E+8 61850.5 1.73233E+6 857.488 1.38959E+6 767.971 4.27847 0.031464
6317 1.24918E+8 61819.5 1.24918E+8 61819.5 1.73515E+6 858.693 1.39208E+6 769.118 4.27656 0.0314605
6318 1.24621E+8 61717.6 1.24621E+8 61717.6 1.73433E+6 858.915 1.3906E+6 769.07 4.27466 0.031472
6319 1.24471E+8 61657.9 1.24471E+8 61657.9 1.73555E+6 859.72 1.3927E+6 770.12 4.27275 0.0314756
6320 1.24355E+8 61603.3 1.24355E+8 61603.3 1.73724E+6 860.597 1.39321E+6 770.661 4.27084 0.0314764
6321 1.24164E+8 61535.9 1.24164E+8 61535.9 1.73787E+6 861.296 1.39506E+6 771.682 4.26894 0.0314834
6322 1.2385E+8 61428.7 1.2385E+8 61428.7 1.73678E+6 861.436 1.3943E+6 771.811 4.26703 0.0314959
6323 1.23872E+8 61413.9 1.23872E+8 61413.9 1.74041E+6 862.87 1.397E+6 773.04 4.26513 0.0314892
6324 1.23693E+8 61343 1.23693E+8 61343 1.74121E+6 863.518 1.39776E+6 773.656 4.26322 0.0314938
6325 1.23622E+8 61302.5 1.23622E+8 61302.5 1.74353E+6 864.596 1.39923E+6 774.506 4.26131 0.0314925
6326 1.23365E+8 61212.5 1.23365E+8 61212.5 1.74323E+6 864.973 1.3995E+6 774.99 4.25941 0.031502
6327 1.23297E+8 61174.5 1.23297E+8 61174.5 1.74559E+6 866.085 1.40019E+6 775.654 4.2575 0.031501
6328 1.231E+8 61097.3 1.231E+8 61097.3 1.74612E+6 866.642 1.40218E+6 776.592 4.2556 0.0315063
6329 1.22903E+8 61025.3 1.22903E+8 61025.3 1.74666E+6 867.272 1.40254E+6 777.141 4.25369 0.0315129
6330 1.22659E+8 60939.1 1.22659E+8 60939.1 1.74651E+6 867.701 1.40209E+6 777.422 4.25178 0.031522
6331 1.22552E+8 60887.6 1.22552E+8 60887.6 1.74832E+6 868.622 1.40416E+6 778.426 4.24988 0.0315224
6332 1.22513E+8 60854.6 1.22513E+8 60854.6 1.7511E+6 869.806 1.40587E+6 779.35 4.24797 0.0315189
6333 1.22316E+8 60782.1 1.22316E+8 60782.1 1.75162E+6 870.427 1.40688E+6 780.053 4.24607 0.0315255
6334 1.22016E+8 60679.2 1.22016E+8 60679.2 1.75065E+6 870.611 1.40625E+6 780.273 4.24416 0.0315375
6335 1.21902E+8 60629.5 1.21902E+8 60629.5 1.75237E+6 871.559 1.40788E+6 781.19 4.24225 0.0315392
6336 1.21872E+8 60598.3 1.21872E+8 60598.3 1.75527E+6 872.772 1.41039E+6 782.32 4.24035 0.031535
6337 1.2154E+8 60489.7 1.2154E+8 60489.7 1.75382E+6 872.869 1.40929E+6 782.408 4.23844 0.0315498
6338 1.21471E+8 60447.6 1.21471E+8 60447.6 1.75618E+6 873.926 1.411E+6 783.316 4.23654 0.0315477
6339 1.21309E+8 60384.9 1.21309E+8 60384.9 1.75718E+6 874.684 1.41216E+6 784.103 4.23463 0.0315524
6340 1.2109E+8 60304.7 1.2109E+8 60304.7 1.75735E+6 875.189 1.41286E+6 784.71 4.23273 0.03156
6341 1.20999E+8 60258.9 1.20999E+8 60258.9 1.75938E+6 876.193 1.41427E+6 785.574 4.23082 0.0315598
6342 1.20863E+8 60198.9 1.20863E+8 60198.9 1.76076E+6 876.991 1.41484E+6 786.109 4.22891 0.0315619
6343 1.20642E+8 60118.7 1.20642E+8 60118.7 1.76089E+6 877.494 1.41598E+6 786.853 4.22701 0.0315697
6344 1.20528E+8 60067.7 1.20528E+8 60067.7 1.76259E+6 878.42 1.4177E+6 787.794 4.2251 0.0315712
6345 1.20338E+8 59996.9 1.20338E+8 59996.9 1.76317E+6 879.06 1.41756E+6 788.182 4.2232 0.0315775
6346 1.2027E+8 59954.4 1.2027E+8 59954.4 1.76553E+6 880.114 1.41936E+6 789.114 4.22129 0.0315753
6347 1.201E+8 59886.6 1.201E+8 59886.6 1.7664E+6 880.795 1.4205E+6 789.854 4.21938 0.0315797
6348 1.19833E+8 59795.6 1.19833E+8 59795.6 1.76583E+6 881.135 1.42035E+6 790.225 4.21748 0.0315909
6349 1.19751E+8 59751.4 1.19751E+8 59751.4 1.76799E+6 882.162 1.42199E+6 791.129 4.21557 0.03159
6350 1.19502E+8 59661.1 1.19502E+8 59661.1 1.76767E+6 882.51 1.42233E+6 791.599 4.21367 0.031599
6351 1.19393E+8 59612 1.19393E+8 59612 1.76944E+6 883.466 1.42332E+6 792.334 4.21176 0.0316004
6352 1.19248E+8 59551.5 1.19248E+8 59551.5 1.77065E+6 884.252 1.42456E+6 793.116 4.20985 0.0316036
6353 1.1897E+8 59458 1.1897E+8 59458 1.76989E+6 884.549 1.42415E+6 793.449 4.20795 0.0316157
6354 1.18938E+8 59426 1.18938E+8 59426 1.77281E+6 885.759 1.42665E+6 794.567 4.20604 0.0316113
6355 1.18801E+8 59368.4 1.18801E+8 59368.4 1.77413E+6 886.588 1.42709E+6 795.151 4.20414 0.0316143
6356 1.18592E+8 59288.5 1.18592E+8 59288.5 1.77439E+6 887.085 1.42758E+6 795.675 4.20223 0.0316208
6357 1.18502E+8 59242.3 1.18502E+8 59242.3 1.77643E+6 888.084 1.43031E+6 796.875 4.20032 0.0316205
6358 1.18331E+8 59174.7 1.18331E+8 59174.7 1.77725E+6 888.763 1.43029E+6 797.263 4.19842 0.0316252
6359 1.18084E+8 59088.6 1.18084E+8 59088.6 1.77692E+6 889.162 1.43047E+6 797.762 4.19651 0.0316352
6360 1.18056E+8 59056.8 1.18056E+8 59056.8 1.77989E+6 890.381 1.4333E+6 798.986 4.19461 0.0316305
6361 1.17792E+8 58967.3 1.17792E+8 58967.3 1.7793E+6 890.729 1.43265E+6 799.25 4.1927 0.0316419
6362 1.17695E+8 58920.1 1.17695E+8 58920.1 1.78123E+6 891.711 1.43446E+6 800.211 4.19079 0.0316422
6363 1.17553E+8 58858 1.17553E+8 58858 1.78248E+6 892.472 1.43518E+6 800.799 4.18889 0.0316447
6364 1.17323E+8 58773.8 1.17323E+8 58773.8 1.78238E+6 892.895 1.4357E+6 801.34 4.18698 0.031653
6365 1.1729E+8 58740.7 1.1729E+8 58740.7 1.78527E+6 894.095 1.43818E+6 802.476 4.18508 0.0316486
6366 1.17081E+8 58665.4 1.17081E+8 58665.4 1.78549E+6 894.652 1.43811E+6 802.903 4.18317 0.0316565
6367 1.16864E+8 58586.5 1.16864E+8 58586.5 1.78558E+6 895.153 1.43801E+6 803.285 4.18126 0.0316646
6368 1.16686E+8 58517.3 1.16686E+8 58517.3 1.78627E+6 895.802 1.43897E+6 803.982 4.17936 0.0316699
6369 1.16554E+8 58461.1 1.16554E+8 58461.1 1.78765E+6 896.649 1.44009E+6 804.742 4.17745 0.0316727
6370 1.16357E+8 58386.6 1.16357E+8 58386.6 1.78804E+6 897.213 1.44144E+6 805.558 4.17555 0.0316792
6371 1.1626E+8 58338.8 1.1626E+8 58338.8 1.78995E+6 898.191 1.44259E+6 806.32 4.17364 0.0316795
6372 1.16159E+8 58290.5 1.16159E+8 58290.5 1.79181E+6 899.158 1.44432E+6 807.26 4.17174 0.0316801
6373 1.15867E+8 58190.5 1.15867E+8 58190.5 1.79071E+6 899.328 1.44348E+6 807.43 4.16983 0.0316929
6374 1.15756E+8 58138.1 1.15756E+8 58138.1 1.7924E+6 900.232 1.44516E+6 808.321 4.16792 0.0316938
6375 1.15554E+8 58061.2 1.15554E+8 58061.2 1.79269E+6 900.758 1.44421E+6 808.466 4.16602 0.0317005
6376 1.15406E+8 58001.4 1.15406E+8 58001.4 1.79382E+6 901.546 1.44589E+6 809.381 4.16411 0.0317044
6377 1.15293E+8 57945 1.15293E+8 57945 1.79548E+6 902.388 1.44697E+6 810.059 4.1622 0.0317046
6378 1.15085E+8 57869.7 1.15085E+8 57869.7 1.79565E+6 902.936 1.44745E+6 810.652 4.1603 0.0317126
6379 1.14956E+8 57815.1 1.14956E+8 57815.1 1.79706E+6 903.803 1.44972E+6 811.752 4.15839 0.0317154
6380 1.14758E+8 57739 1.14758E+8 57739 1.7974E+6 904.336 1.44993E+6 812.202 4.15649 0.0317218
6381 1.14676E+8 57693.3 1.14676E+8 57693.3 1.79954E+6 905.344 1.45158E+6 813.102 4.15458 0.0317206
6382 1.1454E+8 57633.1 1.1454E+8 57633.1 1.80082E+6 906.124 1.45315E+6 813.94 4.15268 0.0317229
6383 1.14284E+8 57546.7 1.14284E+8 57546.7 1.80023E+6 906.492 1.45261E+6 814.263 4.15077 0.0317346
6384 1.14172E+8 57494.6 1.14172E+8 57494.6 1.8019E+6 907.4 1.4539E+6 815.048 4.14886 0.0317358
6385 1.13938E+8 57411.1 1.13938E+8 57411.1 1.80164E+6 907.809 1.45314E+6 815.268 4.14696 0.0317453
6386 1.13868E+8 57369.2 1.13868E+8 57369.2 1.80396E+6 908.877 1.45563E+6 816.4 4.14505 0.0317435
6387 1.13779E+8 57322.8 1.13779E+8 57322.8 1.80599E+6 909.875 1.45748E+6 817.367 4.14315 0.031743
6388 1.13494E+8 57224.8 1.13494E+8 57224.8 1.80492E+6 910.054 1.45687E+6 817.57 4.14124 0.0317556
6389 1.13412E+8 57180.2 1.13412E+8 57180.2 1.80704E+6 911.08 1.45878E+6 818.567 4.13933 0.0317548
6390 1.13164E+8 57093.9 1.13164E+8 57093.9 1.80654E+6 911.438 1.45849E+6 818.931 4.13743 0.0317655
6391 1.13129E+8 57059.5 1.13129E+8 57059.5 1.80941E+6 912.628 1.46082E+6 820.003 4.13552 0.0317609
6392 1.12955E+8 56991.3 1.12955E+8 56991.3 1.81008E+6 913.276 1.4619E+6 820.739 4.13362 0.0317663
6393 1.1274E+8 56912.6 1.1274E+8 56912.6 1.81008E+6 913.754 1.46095E+6 820.901 4.13171 0.0317747
6394 1.12547E+8 56840 1.12547E+8 56840 1.81044E+6 914.329 1.46212E+6 821.654 4.1298 0.0317815
6395 1.12388E+8 56774.7 1.12388E+8 56774.7 1.81133E+6 915.022 1.46363E+6 822.519 4.1279 0.0317857
6396 1.12275E+8 56723.1 1.12275E+8 56723.1 1.81296E+6 915.934 1.46421E+6 823.118 4.12599 0.0317873
6397 1.12207E+8 56682.8 1.12207E+8 56682.8 1.81531E+6 917.03 1.46624E+6 824.156 4.12409 0.0317857
6398 1.11979E+8 56595.5 1.11979E+8 56595.5 1.81508E+6 917.364 1.46631E+6 824.502 4.12218 0.0317935
6399 1.11814E+8 56531.8 1.11814E+8 56531.8 1.81587E+6 918.08 1.46673E+6 825.1 4.12027 0.0317989
6400 1.11616E+8 56455.6 1.11616E+8 56455.6 1.81611E+6 918.591 1.46689E+6 825.548 4.11837 0.0318057
6401 1.11503E+8 56403.9 1.11503E+8 56403.9 1.81773E+6 919.502 1.46848E+6 826.425 4.11646 0.0318073
6402 1.11416E+8 56358 1.11416E+8 56358 1.81978E+6 920.505 1.47089E+6 827.549 4.11456 0.0318067
6403 1.11218E+8 56280.9 1.11218E+8 56280.9 1.82001E+6 921.001 1.47115E+6 828.007 4.11265 0.0318133
6404 1.10953E+8 56190.3 1.10953E+8 56190.3 1.81913E+6 921.271 1.46998E+6 828.125 4.11075 0.0318256
6405 1.10818E+8 56134.3 1.10818E+8 56134.3 1.82039E+6 922.109 1.47095E+6 828.866 4.10884 0.0318291
6406 1.10712E+8 56078.8 1.10712E+8 56078.8 1.82211E+6 922.954 1.47262E+6 829.714 4.10693 0.0318286
6407 1.10508E+8 56006.1 1.10508E+8 56006.1 1.82223E+6 923.518 1.47349E+6 830.437 4.10503 0.0318373
6408 1.1047E+8 55968.4 1.1047E+8 55968.4 1.82501E+6 924.624 1.4752E+6 831.277 4.10316 0.0318321
6409 1.10255E+8 55891.4 1.10255E+8 55891.4 1.82468E+6 924.978 1.47518E+6 831.669 4.1014 0.0318411
6410 1.101E+8 55825.2 1.101E+8 55825.2 1.82518E+6 925.437 1.47577E+6 832.126 4.09971 0.0318446
6411 1.09987E+8 55773.8 1.09987E+8 55773.8 1.82636E+6 926.138 1.4767E+6 832.769 4.09804 0.0318464
6412 1.09842E+8 55711.3 1.09842E+8 55711.3 1.82701E+6 926.654 1.47708E+6 833.165 4.09636 0.0318495
6413 1.09649E+8 55641 1.09649E+8 55641 1.82688E+6 927.038 1.47777E+6 833.74 4.09468 0.0318573
6414 1.09535E+8 55586.4 1.09535E+8 55586.4 1.82804E+6 927.686 1.47931E+6 834.499 4.093 0.0318584
6415 1.09378E+8 55522.8 1.09378E+8 55522.8 1.82848E+6 928.18 1.47915E+6 834.779 4.09132 0.0318629
6416 1.09082E+8 55423.1 1.09082E+8 55423.1 1.8266E+6 928.069 1.47763E+6 834.695 4.08965 0.0318774
6417 1.09118E+8 55408.6 1.09118E+8 55408.6 1.83027E+6 929.385 1.48095E+6 835.981 4.08797 0.031868
6418 1.08834E+8 55309.9 1.08834E+8 55309.9 1.82857E+6 929.289 1.47964E+6 835.919 4.08629 0.0318812
6419 1.08721E+8 55257.6 1.08721E+8 55257.6 1.82974E+6 929.969 1.48031E+6 836.456 4.08461 0.0318827
6420 1.08601E+8 55203.6 1.08601E+8 55203.6 1.83079E+6 930.622 1.48173E+6 837.2 4.08293 0.0318847
6421 1.08456E+8 55143.6 1.08456E+8 55143.6 1.83142E+6 931.171 1.48167E+6 837.531 4.08125 0.0318886
6422 1.08219E+8 55059.2 1.08219E+8 55059.2 1.83049E+6 931.309 1.4816E+6 837.84 4.07957 0.0318991
6423 1.08153E+8 55019.3 1.08153E+8 55019.3 1.83244E+6 932.197 1.48355E+6 838.732 4.0779 0.0318973
6424 1.07984E+8 54955.7 1.07984E+8 54955.7 1.83266E+6 932.683 1.48401E+6 839.266 4.07622 0.0319037
6425 1.07868E+8 54904.1 1.07868E+8 54904.1 1.83376E+6 933.374 1.48529E+6 840.007 4.07454 0.0319059
6426 1.0768E+8 54833.4 1.0768E+8 54833.4 1.83363E+6 933.736 1.48451E+6 840.134 4.07286 0.0319133
6427 1.07575E+8 54784.4 1.07575E+8 54784.4 1.83492E+6 934.469 1.48556E+6 840.796 4.07118 0.0319145
6428 1.07445E+8 54730.2 1.07445E+8 54730.2 1.8358E+6 935.114 1.48606E+6 841.309 4.0695 0.031918
6429 1.07242E+8 54658.5 1.07242E+8 54658.5 1.83541E+6 935.457 1.48722E+6 842.03 4.06782 0.0319272
6430 1.07151E+8 54612.3 1.07151E+8 54612.3 1.83692E+6 936.237 1.48827E+6 842.701 4.06615 0.0319273
6431 1.06985E+8 54546.9 1.06985E+8 54546.9 1.83715E+6 936.686 1.48823E+6 843.036 4.06447 0.031933
6432 1.06868E+8 54495.3 1.06868E+8 54495.3 1.83824E+6 937.371 1.48986E+6 843.871 4.06279 0.0319352
6433 1.0667E+8 54421.2 1.0667E+8 54421.2 1.83792E+6 937.669 1.48923E+6 844.03 4.06111 0.0319431
6434 1.06503E+8 54358.9 1.06503E+8 54358.9 1.83811E+6 938.171 1.48885E+6 844.328 4.05943 0.0319499
6435 1.06405E+8 54312.1 1.06405E+8 54312.1 1.83951E+6 938.938 1.49094E+6 845.286 4.05775 0.0319508
6436 1.06222E+8 54242 1.06222E+8 54242 1.83944E+6 939.301 1.49062E+6 845.537 4.05608 0.0319577
6437 1.06104E+8 54187.9 1.06104E+8 54187.9 1.84047E+6 939.939 1.49249E+6 846.411 4.0544 0.0319595
6438 1.05962E+8 54133.5 1.05962E+8 54133.5 1.84109E+6 940.573 1.49287E+6 846.944 4.05272 0.0319649
6439 1.05862E+8 54083.9 1.05862E+8 54083.9 1.84244E+6 941.288 1.49364E+6 847.487 4.05104 0.0319653
6440 1.05671E+8 54015.6 1.05671E+8 54015.6 1.84222E+6 941.68 1.49359E+6 847.901 4.04936 0.031974
6441 1.05445E+8 53936.4 1.05445E+8 53936.4 1.84136E+6 941.88 1.49306E+6 848.109 4.04768 0.0319848
6442 1.05397E+8 53899.2 1.05397E+8 53899.2 1.84362E+6 942.811 1.49427E+6 848.776 4.04601 0.031981
6443 1.05192E+8 53825.9 1.05192E+8 53825.9 1.84312E+6 943.111 1.49474E+6 849.286 4.04433 0.0319904
6444 1.05089E+8 53778.8 1.05089E+8 53778.8 1.84442E+6 943.869 1.49621E+6 850.091 4.04265 0.031992
6445 1.05033E+8 53743.8 1.05033E+8 53743.8 1.84653E+6 944.838 1.49778E+6 850.926 4.04097 0.0319901
6446 1.04818E+8 53664.7 1.04818E+8 53664.7 1.84585E+6 945.032 1.49655E+6 850.905 4.03929 0.0319993
6447 1.04761E+8 53626.7 1.04761E+8 53626.7 1.84793E+6 945.95 1.49978E+6 852.169 4.03761 0.0319968
6448 1.04491E+8 53537.3 1.04491E+8 53537.3 1.84627E+6 945.96 1.49804E+6 852.074 4.03593 0.0320114
6449 1.04373E+8 53485.9 1.04373E+8 53485.9 1.84729E+6 946.637 1.49839E+6 852.552 4.03426 0.032014
6450 1.04295E+8 53442.3 1.04295E+8 53442.3 1.84899E+6 947.456 1.50007E+6 853.358 4.03258 0.032013
6451 1.04171E+8 53390.6 1.04171E+8 53390.6 1.8499E+6 948.129 1.50084E+6 853.992 4.0309 0.0320165
6452 1.0398E+8 53317.3 1.0398E+8 53317.3 1.84961E+6 948.417 1.50018E+6 854.118 4.02922 0.0320239
6453 1.03894E+8 53274.5 1.03894E+8 53274.5 1.85119E+6 949.248 1.50292E+6 855.279 4.02754 0.0320243
6454 1.03719E+8 53206.4 1.03719E+8 53206.4 1.85117E+6 949.627 1.50238E+6 855.469 4.02586 0.0320309
6455 1.03572E+8 53148.7 1.03572E+8 53148.7 1.85165E+6 950.191 1.50396E+6 856.33 4.02419 0.0320362
6456 1.03367E+8 53074.2 1.03367E+8 53074.2 1.85109E+6 950.452 1.50233E+6 856.212 4.02251 0.0320454
6457 1.03284E+8 53028.8 1.03284E+8 53028.8 1.85272E+6 951.234 1.50438E+6 857.149 4.02083 0.0320445
6458 1.03165E+8 52978.8 1.03165E+8 52978.8 1.85369E+6 951.937 1.50504E+6 857.739 4.01915 0.032048
6459 1.03044E+8 52923.8 1.03044E+8 52923.8 1.85462E+6 952.544 1.50653E+6 858.487 4.01747 0.0320501
6460 1.02886E+8 52861.6 1.02886E+8 52861.6 1.8549E+6 953.024 1.50636E+6 858.798 4.01579 0.0320558
6461 1.02798E+8 52815.6 1.02798E+8 52815.6 1.85642E+6 953.793 1.50814E+6 859.66 4.01412 0.0320556
6462 1.02569E+8 52736.6 1.02569E+8 52736.6 1.85539E+6 953.968 1.50699E+6 859.727 4.01244 0.0320674
6463 1.0251E+8 52699.7 1.0251E+8 52699.7 1.85744E+6 954.9 1.50896E+6 860.65 4.01076 0.0320654
6464 1.02363E+8 52639.6 1.02363E+8 52639.6 1.8579E+6 955.414 1.50955E+6 861.19 4.00908 0.0320701
6465 1.02241E+8 52586.9 1.02241E+8 52586.9 1.8588E+6 956.06 1.51036E+6 861.785 4.0074 0.0320731
6466 1.02052E+8 52517.4 1.02052E+8 52517.4 1.85848E+6 956.401 1.50911E+6 861.806 4.00572 0.0320816
6467 1.01855E+8 52442.2 1.01855E+8 52442.2 1.85802E+6 956.637 1.50969E+6 862.286 4.00404 0.0320895
6468 1.01778E+8 52402.5 1.01778E+8 52402.5 1.85971E+6 957.517 1.51182E+6 863.3 4.00237 0.0320897
6469 1.01554E+8 52320.4 1.01554E+8 52320.4 1.85872E+6 957.612 1.51055E+6 863.256 4.0007 0.0320998
6470 1.01559E+8 52301.9 1.01559E+8 52301.9 1.86186E+6 958.846 1.51348E+6 864.46 3.99906 0.0320934
6471 1.01395E+8 52237.8 1.01395E+8 52237.8 1.8619E+6 959.233 1.51368E+6 864.863 3.99743 0.0320996
6472 1.01257E+8 52183.7 1.01257E+8 52183.7 1.8624E+6 959.801 1.5142E+6 865.403 3.9958 0.0321047
6473 1.01124E+8 52124.1 1.01124E+8 52124.1 1.86298E+6 960.269 1.51451E+6 865.79 3.99417 0.0321075
6474 1.00917E+8 52049.3 1.00917E+8 52049.3 1.86219E+6 960.454 1.51391E+6 865.976 3.99254 0.0321174
6475 1.00839E+8 52006.2 1.00839E+8 52006.2 1.86379E+6 961.223 1.51533E+6 866.691 3.99091 0.0321165
6476 1.00632E+8 51930.2 1.00632E+8 51930.2 1.863E+6 961.385 1.51473E+6 866.863 3.98928 0.032126
6477 1.00558E+8 51889.2 1.00558E+8 51889.2 1.86468E+6 962.192 1.51647E+6 867.703 3.98765 0.0321251
6478 1.0039E+8 51824.9 1.0039E+8 51824.9 1.86459E+6 962.568 1.51628E+6 867.986 3.98602 0.0321321
6479 1.003E+8 51780.1 1.003E+8 51780.1 1.86595E+6 963.303 1.51804E+6 868.83 3.98439 0.0321326
6480 1.00091E+8 51704.6 1.00091E+8 51704.6 1.86511E+6 963.468 1.51751E+6 869.041 3.98276 0.0321427
6481 9.998E+7 51654.6 9.998E+7 51654.6 1.86607E+6 964.106 1.5187E+6 869.758 3.98113 0.032145
6482 9.98862E+7 51606.1 9.98862E+7 51606.1 1.86736E+6 964.772 1.51957E+6 870.283 3.9795 0.032145
6483 9.97133E+7 51542.1 9.97133E+7 51542.1 1.86717E+6 965.145 1.51896E+6 870.495 3.97788 0.0321528
6484 9.95976E+7 51490.4 9.95976E+7 51490.4 1.86805E+6 965.75 1.51974E+6 871.054 3.97625 0.0321554
6485 9.94591E+7 51430.1 9.94591E+7 51430.1 1.86849E+6 966.192 1.52086E+6 871.651 3.97462 0.0321589
6486 9.9325E+7 51373.5 9.9325E+7 51373.5 1.86901E+6 966.703 1.52111E+6 872.079 3.97299 0.0321629
6487 9.91854E+7 51317.7 9.91854E+7 51317.7 1.86943E+6 967.227 1.521E+6 872.426 3.97136 0.032168
6488 9.90414E+7 51256 9.90414E+7 51256 1.86976E+6 967.64 1.52229E+6 873.11 3.96973 0.0321721
6489 9.88465E+7 51186.1 9.88465E+7 51186.1 1.86912E+6 967.896 1.52142E+6 873.234 3.9681 0.0321818
6490 9.87367E+7 51132.7 9.87367E+7 51132.7 1.87009E+6 968.464 1.5229E+6 873.931 3.96647 0.0321829
6491 9.86047E+7 51078.1 9.86047E+7 51078.1 1.87064E+6 969.008 1.52377E+6 874.542 3.96484 0.0321872
6492 9.84971E+7 51028.6 9.84971E+7 51028.6 1.87164E+6 969.647 1.52412E+6 874.986 3.96321 0.0321892
6493 9.83756E+7 50976.5 9.83756E+7 50976.5 1.87238E+6 970.236 1.52456E+6 875.469 3.96158 0.0321926
6494 9.82041E+7 50908.1 9.82041E+7 50908.1 1.87217E+6 970.514 1.52501E+6 875.905 3.95995 0.0321991
6495 9.807E+7 50851.9 9.807E+7 50851.9 1.87266E+6 971.023 1.52573E+6 876.455 3.95832 0.0322033
6496 9.79411E+7 50797.5 9.79411E+7 50797.5 1.87325E+6 971.568 1.52615E+6 876.918 3.95669 0.0322073
6497 9.78775E+7 50758.2 9.78775E+7 50758.2 1.87508E+6 972.398 1.52696E+6 877.473 3.95506 0.0322053
6498 9.76927E+7 50689.2 9.76927E+7 50689.2 1.8746E+6 972.661 1.52733E+6 877.941 3.95343 0.0322138
6499 9.75564E+7 50630.2 9.75564E+7 50630.2 1.87503E+6 973.113 1.52716E+6 878.199 3.9518 0.0322175
6500 9.74686E+7 50586 9.74686E+7 50586 1.8764E+6 973.848 1.52898E+6 879.062 3.95017 0.0322179
6501 9.73398E+7 50533.8 9.73398E+7 50533.8 1.87698E+6 974.429 1.5294E+6 879.572 3.94855 0.0322226
6502 9.71851E+7 50469.7 9.71851E+7 50469.7 1.87705E+6 974.781 1.53011E+6 880.073 3.94691 0.0322278
6503 9.70435E+7 50410.7 9.70435E+7 50410.7 1.87737E+6 975.229 1.53007E+6 880.401 3.94529 0.0322324
6504 9.68714E+7 50344.2 9.68714E+7 50344.2 1.8771E+6 975.532 1.53008E+6 880.72 3.94366 0.0322398
6505 9.68011E+7 50304.3 9.68011E+7 50304.3 1.8788E+6 976.348 1.53148E+6 881.464 3.94203 0.0322387
6506 9.6619E+7 50234.4 9.6619E+7 50234.4 1.87831E+6 976.578 1.53098E+6 881.646 3.9404 0.0322466
6507 9.65027E+7 50181.9 9.65027E+7 50181.9 1.87908E+6 977.132 1.53208E+6 882.301 3.93879 0.0322492
6508 9.64594E+7 50152.1 9.64594E+7 50152.1 1.88125E+6 978.117 1.53377E+6 883.151 3.93719 0.0322469
6509 9.61758E+7 50054.5 9.61758E+7 50054.5 1.87872E+6 977.778 1.53145E+6 882.772 3.93558 0.0322629
6510 9.59904E+7 49984.5 9.59904E+7 49984.5 1.87811E+6 977.975 1.53158E+6 883.128 3.93398 0.0322715
6511 9.59283E+7 49945.6 9.59283E+7 49945.6 1.8799E+6 978.781 1.53383E+6 884.078 3.93238 0.0322693
6512 9.58302E+7 49899.7 9.58302E+7 49899.7 1.88099E+6 979.45 1.5347E+6 884.696 3.93078 0.032271
6513 9.57278E+7 49849.3 9.57278E+7 49849.3 1.88199E+6 980.029 1.53471E+6 884.966 3.92918 0.032272
6514 9.55202E+7 49774 9.55202E+7 49774 1.88092E+6 980.116 1.53488E+6 885.362 3.92758 0.0322826
6515 9.53386E+7 49704.7 9.53386E+7 49704.7 1.88035E+6 980.321 1.53488E+6 885.677 3.92598 0.0322908
6516 9.53573E+7 49689.7 9.53573E+7 49689.7 1.88373E+6 981.594 1.53693E+6 886.617 3.92437 0.0322828
6517 9.5158E+7 49614.1 9.5158E+7 49614.1 1.88281E+6 981.672 1.53618E+6 886.7 3.92277 0.032292
6518 9.50029E+7 49551.6 9.50029E+7 49551.6 1.88275E+6 982.007 1.53518E+6 886.718 3.92117 0.032298
6519 9.48394E+7 49485.4 9.48394E+7 49485.4 1.88253E+6 982.266 1.53719E+6 887.582 3.91957 0.0323042
6520 9.47468E+7 49438.9 9.47468E+7 49438.9 1.8837E+6 982.919 1.53697E+6 887.844 3.91797 0.0323048
6521 9.45945E+7 49376.8 9.45945E+7 49376.8 1.88369E+6 983.257 1.53742E+6 888.272 3.91637 0.0323105
6522 9.44106E+7 49309.4 9.44106E+7 49309.4 1.88304E+6 983.486 1.53692E+6 888.511 3.91477 0.0323199
6523 9.43654E+7 49273.3 9.43654E+7 49273.3 1.88516E+6 984.344 1.53886E+6 889.338 3.91316 0.0323158
6524 9.41344E+7 49190.6 9.41344E+7 49190.6 1.88356E+6 984.268 1.53823E+6 889.448 3.91156 0.0323282
6525 9.3982E+7 49128 9.3982E+7 49128 1.88352E+6 984.589 1.53793E+6 889.67 3.90996 0.0323338
6526 9.38304E+7 49064.7 9.38304E+7 49064.7 1.88349E+6 984.896 1.53767E+6 889.871 3.90836 0.0323391
6527 9.36943E+7 49006.7 9.36943E+7 49006.7 1.88378E+6 985.31 1.53793E+6 890.246 3.90676 0.0323434
6528 9.35213E+7 48937.2 9.35213E+7 48937.2 1.88331E+6 985.488 1.53775E+6 890.479 3.90516 0.0323504
6529 9.32875E+7 48854.7 9.32875E+7 48854.7 1.88162E+6 985.405 1.53739E+6 890.713 3.90355 0.0323636
6530 9.32109E+7 48812.1 9.32109E+7 48812.1 1.88308E+6 986.123 1.53821E+6 891.243 3.90195 0.0323628
6531 9.30006E+7 48735.1 9.30006E+7 48735.1 1.88185E+6 986.147 1.53802E+6 891.484 3.90035 0.0323738
6532 9.28541E+7 48675.6 9.28541E+7 48675.6 1.79227E+6 943.922 1.46458E+6 853.268 3.94755 0.0324173
6533 9.27492E+7 48625.9 9.27492E+7 48625.9 1.29527E+6 719.306 1.05845E+6 650.222 4.27118 0.0328574
6534 9.25831E+7 48560 9.25831E+7 48560 656059 373.248 536056 337.388 4.94961 0.033067
6535 9.24845E+7 48514.1 9.24845E+7 48514.1 312390 177.763 255253 160.673 5.69054 0.0330697
6536 9.22792E+7 48438.7 9.22792E+7 48438.7 148597 84.6116 121411 76.4759 6.43134 0.0330805
6537 9.20653E+7 48360.4 9.20653E+7 48360.4 70634.6 40.2481 57709.5 36.3778 7.17273 0.0330922
6538 9.18971E+7 48296.5 9.18971E+7 48296.5 33604.9 19.1583 27474.6 17.3218 7.91375 0.0331007
6539 9.1862E+7 48265.8 9.1862E+7 48265.8 16015.2 9.12767 13095.1 8.25377 8.6545 0.0330961
6540 9.16413E+7 48186 9.16413E+7 48186 7615.84 4.34395 6224.24 3.92706 9.39541 0.0331088
6541 9.14129E+7 48103.4 9.14129E+7 48103.4 3620.16 2.06648 2960.66 1.86885 10.1366 0.0331217
6542 9.13341E+7 48063.9 9.13341E+7 48063.9 1724.39 0.98437 1410.62 0.890343 10.8774 0.0331224
6543 9.12539E+7 48021.7 9.12539E+7 48021.7 821.524 0.468971 671.851 0.424098 11.618 0.0331225
6544 9.10676E+7 47951 9.10676E+7 47951 390.747 0.223175 319.543 0.20181 12.3591 0.0331314
6545 9.09397E+7 47898.1 9.09397E+7 47898.1 185.885 0.106206 151.955 0.0960217 13.1006 0.0331369
6546 9.07961E+7 47837.8 9.07961E+7 47837.8 88.5166 0.0505886 72.4128 0.0457534 13.8409 0.0331419
6547 9.06425E+7 47777.1 9.06425E+7 47777.1 42.1006 0.0240711 34.4408 0.0217725 14.5824 0.0331488
6548 9.0428E+7 47697.4 9.0428E+7 47697.4 20.0235 0.0114567 16.3845 0.0103638 15.3232 0.0331607
6549 9.02945E+7 47642.1 9.02945E+7 47642.1 9.52895 0.00545383 7.7962 0.00493299 16.0643 0.0331658
6550 9.01197E+7 47577 9.01197E+7 47577 4.53355 0.00259626 3.71009 0.0023486 16.8051 0.0331754
6551 9.00184E+7 47527.9 9.00184E+7 47527.9 2.1585 0.00123628 1.76663 0.0011184 17.5461 0.0331772
6552 8.97123E+7 47424.9 8.97123E+7 47424.9 1.02525 0.00058791 0.838931 0.000531769 18.2872 0.0331973
6553 8.97667E+7 47419.4 8.97667E+7 47419.4 0.489049 0.000280243 0.400195 0.000253499 19.028 0.0331857
6554 8.9632E+7 47363.4 8.9632E+7 47363.4 0.232594 0.000133328 0.190384 0.000120629 19.7697 0.033191
6555 8.93922E+7 47278.5 8.93922E+7 47278.5 0.110626 0.0000634663 0.0905713 0.0000574224 20.5101 0.0332052
6556 8.92744E+7 47228 8.92744E+7 47228 0.0526684 0.0000302254 0.0431168 0.0000273472 21.251 0.03321
6557 8.91406E+7 47171.3 8.91406E+7 47171.3 0.0250581 0.0000143847 0.0205206 0.0000130177 21.9923 0.0332149
6558 8.89998E+7 47113.1 8.89998E+7 47113.1 0.0119314 0.00000685165 0.00976689 0.00000619922 22.7327 0.0332207
6559 8.88076E+7 47039.5 8.88076E+7 47039.5 0.00567383 0.00000325978 0.00464598 0.00000294981 23.4739 0.0332296
6560 8.87667E+7 47010 8.87667E+7 47010 0.00270221 0.00000155237 0.00221183 0.0000014044 24.2152 0.0332276
6561 8.85813E+7 46939.7 8.85813E+7 46939.7 0.00128541 7.38867E-7 0.00105267 6.686E-7 24.9561 0.0332373
6562 8.84103E+7 46871.9 8.84103E+7 46871.9 0.000611879 3.51881E-7 0.000501114 3.18474E-7 25.6965 0.0332452
6563 8.82702E+7 46817.1 8.82702E+7 46817.1 0.000291072 1.67464E-7 0.000238429 1.51568E-7 26.4379 0.0332523
6564 8.81548E+7 46766.4 8.81548E+7 46766.4 0.000138555 7.97321E-8 0.000113467 7.21446E-8 27.1788 0.0332559
6565 8.79774E+7 46697.7 8.79774E+7 46697.7 0.0000659299 3.79596E-8 0.0000540312 3.43677E-8 27.9195 0.0332648
6566 8.78694E+7 46646.7 8.78694E+7 46646.7 0.0000313887 1.80737E-8 0.0000257279 1.63634E-8 28.6604 0.0332666
6567 8.77007E+7 46584.3 8.77007E+7 46584.3 0.0000149309 8.60282E-9 0.0000122315 7.78668E-9 29.4015 0.0332769
6568 8.76213E+7 46541.1 8.76213E+7 46541.1 0.00000710831 4.09534E-9 0.00000582559 3.70763E-9 30.1428 0.0332761
6569 8.74209E+7 46466.3 8.74209E+7 46466.3 0.00000338032 1.94894E-9 0.00000277027 1.76419E-9 30.8838 0.0332878
6570 8.73318E+7 46422.3 8.73318E+7 46422.3 0.00000161008 9.28418E-10 0.00000131987 8.40582E-10 31.6245 0.0332895
6571 8.71162E+7 46343.8 8.71162E+7 46343.8 7.72586E-7 4.43532E-10 6.33106E-7 4.01479E-10 32.3563 0.0332575
6572 8.70787E+7 46316.2 8.70787E+7 46316.2 4.65551E-7 2.50907E-10 3.81593E-7 2.27162E-10 32.8624 0.0327236
6573 8.69559E+7 46261.9 8.69559E+7 46261.9 4.25672E-7 2.26472E-10 3.48945E-7 2.05041E-10 32.9505 0.0326198
6574 8.6749E+7 46185.3 8.6749E+7 46185.3 4.30754E-7 2.29342E-10 3.53069E-7 2.07631E-10 32.9363 0.0326316
6575 8.66099E+7 46127.2 8.66099E+7 46127.2 4.36238E-7 2.32342E-10 3.57778E-7 2.1041E-10 32.922 0.0326373
6576 8.65278E+7 46086.4 8.65278E+7 46086.4 4.42082E-7 2.3547E-10 3.62494E-7 2.13221E-10 32.9077 0.0326383
6577 8.63194E+7 46008.7 8.63194E+7 46008.7 4.47346E-7 2.38446E-10 3.6682E-7 2.15915E-10 32.8935 0.0326501
6578 8.61942E+7 45956.1 8.61942E+7 45956.1 4.5311E-7 2.41592E-10 3.71759E-7 2.18827E-10 32.8792 0.0326551
6579 8.60692E+7 45902.7 8.60692E+7 45902.7 4.58948E-7 2.44776E-10 3.76603E-7 2.2173E-10 32.865 0.0326598
6580 8.59935E+7 45862.5 8.59935E+7 45862.5 4.65127E-7 2.48073E-10 3.81326E-7 2.2461E-10 32.8507 0.0326599
6581 8.59111E+7 45819.8 8.59111E+7 45819.8 4.71353E-7 2.514E-10 3.86707E-7 2.27707E-10 32.8365 0.0326604
6582 8.56885E+7 45740 8.56885E+7 45740 4.76878E-7 2.54564E-10 3.91187E-7 2.30558E-10 32.8222 0.0326742
6583 8.56229E+7 45703.2 8.56229E+7 45703.2 4.83359E-7 2.58013E-10 3.96535E-7 2.3369E-10 32.808 0.0326736
6584 8.54316E+7 45631.1 8.54316E+7 45631.1 4.89197E-7 2.61301E-10 4.01419E-7 2.367E-10 32.7937 0.0326844
6585 8.53765E+7 45595.6 8.53765E+7 45595.6 4.95905E-7 2.64849E-10 4.06943E-7 2.39914E-10 32.7795 0.0326822
6586 8.51812E+7 45522 8.51812E+7 45522 5.01868E-7 2.68214E-10 4.11759E-7 2.42939E-10 32.7652 0.0326932
6587 8.50675E+7 45473.9 8.50675E+7 45473.9 5.08392E-7 2.71777E-10 4.17278E-7 2.46214E-10 32.751 0.0326978
6588 8.48924E+7 45406.7 8.48924E+7 45406.7 5.14633E-7 2.75273E-10 4.22383E-7 2.49383E-10 32.7367 0.0327073
6589 8.47571E+7 45350.8 8.47571E+7 45350.8 5.21187E-7 2.7888E-10 4.27739E-7 2.52638E-10 32.7225 0.0327132
6590 8.47204E+7 45321.9 8.47204E+7 45321.9 5.28434E-7 2.82701E-10 4.33911E-7 2.56169E-10 32.7082 0.0327099
6591 8.45466E+7 45254.5 8.45466E+7 45254.5 5.34924E-7 2.86334E-10 4.39241E-7 2.59462E-10 32.694 0.0327191
6592 8.44413E+7 45206.8 8.44413E+7 45206.8 5.4193E-7 2.9014E-10 4.45262E-7 2.62987E-10 32.6797 0.0327223
6593 8.43405E+7 45159.1 8.43405E+7 45159.1 5.49051E-7 2.93993E-10 4.50901E-7 2.66421E-10 32.6654 0.0327245
6594 8.42872E+7 45125.8 8.42872E+7 45125.8 5.56583E-7 2.97995E-10 4.57058E-7 2.70038E-10 32.6512 0.0327228
6595 8.40755E+7 45048.1 8.40755E+7 45048.1 5.63149E-7 3.01748E-10 4.62359E-7 2.73411E-10 32.6369 0.0327357
6596 8.4017E+7 45013.2 8.4017E+7 45013.2 5.70833E-7 3.05842E-10 4.68921E-7 2.77195E-10 32.6227 0.0327345
6597 8.38382E+7 44944.2 8.38382E+7 44944.2 5.77804E-7 3.09762E-10 4.7462E-7 2.80743E-10 32.6084 0.0327442
6598 8.37428E+7 44901.9 8.37428E+7 44901.9 5.85428E-7 3.13911E-10 4.81113E-7 2.8457E-10 32.5942 0.0327475
6599 8.36459E+7 44854.8 8.36459E+7 44854.8 5.93147E-7 3.18084E-10 4.87443E-7 2.88346E-10 32.5799 0.0327492
6600 8.34524E+7 44784.2 8.34524E+7 44784.2 6.00264E-7 3.2214E-10 4.93158E-7 2.91985E-10 32.5657 0.0327614
6601 8.3325E+7 44728.8 8.3325E+7 44728.8 6.07959E-7 3.26364E-10 4.99805E-7 2.95909E-10 32.5514 0.0327661
6602 8.32021E+7 44677.6 8.32021E+7 44677.6 6.15774E-7 3.30668E-10 5.06013E-7 2.99753E-10 32.5372 0.0327715
6603 8.31249E+7 44637.4 8.31249E+7 44637.4 6.24033E-7 3.35113E-10 5.1285E-7 3.03793E-10 32.5229 0.032772
6604 8.29485E+7 44568.2 8.29485E+7 44568.2 6.31645E-7 3.39395E-10 5.19216E-7 3.07711E-10 32.5087 0.0327814
6605 8.28526E+7 44524.2 8.28526E+7 44524.2 6.39972E-7 3.43927E-10 5.26225E-7 3.11867E-10 32.4944 0.0327841
6606 8.28088E+7 44492 8.28088E+7 44492 6.48816E-7 3.48612E-10 5.33402E-7 3.16083E-10 32.4802 0.0327809
6607 8.27065E+7 44446.8 8.27065E+7 44446.8 6.57316E-7 3.53256E-10 5.40347E-7 3.20286E-10 32.4659 0.0327845
6608 8.2482E+7 44365.2 8.2482E+7 44365.2 6.64945E-7 3.57671E-10 5.4671E-7 3.24316E-10 32.4517 0.032799
6609 8.2443E+7 44335.5 8.2443E+7 44335.5 6.74174E-7 3.62564E-10 5.54339E-7 3.28762E-10 32.4374 0.0327958
6610 8.23263E+7 44286.7 8.23263E+7 44286.7 6.82881E-7 3.67363E-10 5.61489E-7 3.33113E-10 32.4231 0.0328009
6611 8.21746E+7 44226.4 8.21746E+7 44226.4 6.91409E-7 3.7213E-10 5.68687E-7 3.37485E-10 32.4089 0.0328088
6612 8.21009E+7 44185.8 8.21009E+7 44185.8 7.00697E-7 3.77121E-10 5.76354E-7 3.42025E-10 32.3946 0.0328085
6613 8.19819E+7 44134.4 8.19819E+7 44134.4 7.0973E-7 3.82092E-10 5.83621E-7 3.46486E-10 32.3804 0.0328132
6614 8.18931E+7 44092.2 8.18931E+7 44092.2 7.19136E-7 3.87205E-10 5.91616E-7 3.51195E-10 32.3661 0.0328153
6615 8.17761E+7 44041.5 8.17761E+7 44041.5 7.28424E-7 3.92315E-10 5.99294E-7 3.5584E-10 32.3519 0.0328199
6616 8.17318E+7 44010.2 8.17318E+7 44010.2 7.38477E-7 3.97662E-10 6.0751E-7 3.60677E-10 32.3376 0.0328171
6617 8.15377E+7 43938.1 8.15377E+7 43938.1 7.47301E-7 4.02712E-10 6.1491E-7 3.65298E-10 32.3234 0.0328292
6618 8.14254E+7 43889.6 8.14254E+7 43889.6 7.56988E-7 4.08043E-10 6.231E-7 3.70199E-10 32.3091 0.0328337
6619 8.13847E+7 43859.1 8.13847E+7 43859.1 7.67466E-7 4.13611E-10 6.31684E-7 3.75237E-10 32.2949 0.0328305
6620 8.12691E+7 43809.6 8.12691E+7 43809.6 7.77378E-7 4.19075E-10 6.39919E-7 3.80218E-10 32.2806 0.0328353
6621 8.11633E+7 43764.2 8.11633E+7 43764.2 7.8751E-7 4.24649E-10 6.48448E-7 3.85337E-10 32.2664 0.0328396
6622 8.1058E+7 43715.1 8.1058E+7 43715.1 7.97778E-7 4.30262E-10 6.56777E-7 3.90392E-10 32.2521 0.0328425
6623 8.10224E+7 43686.8 8.10224E+7 43686.8 8.08878E-7 4.36158E-10 6.65906E-7 3.95734E-10 32.2379 0.0328391
6624 8.08321E+7 43617.8 8.08321E+7 43617.8 8.18559E-7 4.41718E-10 6.73967E-7 4.00807E-10 32.2236 0.0328518
6625 8.0735E+7 43573.3 8.0735E+7 43573.3 8.29317E-7 4.47605E-10 6.82901E-7 4.06173E-10 32.2093 0.0328548
6626 8.06485E+7 43530.1 8.06485E+7 43530.1 8.4032E-7 4.5358E-10 6.91952E-7 4.11589E-10 32.1951 0.0328561
6627 8.05166E+7 43475.1 8.05166E+7 43475.1 8.50991E-7 4.5951E-10 7.01017E-7 4.17052E-10 32.1808 0.0328622
6628 8.04604E+7 43441.9 8.04604E+7 43441.9 8.62606E-7 4.65752E-10 7.10439E-7 4.22675E-10 32.1666 0.0328611
6629 8.03868E+7 43402.1 8.03868E+7 43402.1 8.74181E-7 4.72001E-10 7.20261E-7 4.28431E-10 32.1523 0.0328611
6630 8.02367E+7 43344.2 8.02367E+7 43344.2 8.85076E-7 4.78138E-10 7.29049E-7 4.33948E-10 32.1381 0.0328698
6631 8.00815E+7 43283.6 8.00815E+7 43283.6 8.96042E-7 4.84322E-10 7.38029E-7 4.39551E-10 32.1238 0.0328787
6632 8.01157E+7 43273.5 8.01157E+7 43273.5 9.09297E-7 4.91163E-10 7.49162E-7 4.45814E-10 32.1096 0.0328678
6633 7.98861E+7 43192 7.98861E+7 43192 9.19704E-7 4.97273E-10 7.58007E-7 4.51443E-10 32.0953 0.032884
6634 7.98696E+7 43169.2 7.98696E+7 43169.2 9.32713E-7 5.04146E-10 7.68541E-7 4.57629E-10 32.0811 0.0328788
6635 7.96942E+7 43104 7.96942E+7 43104 9.44033E-7 5.10615E-10 7.77878E-7 4.63502E-10 32.0668 0.03289
6636 7.96719E+7 43080.2 7.96719E+7 43080.2 9.57317E-7 5.1766E-10 7.88934E-7 4.69938E-10 32.0526 0.0328856
6637 7.95616E+7 43030.5 7.95616E+7 43030.5 9.69708E-7 5.24481E-10 7.99352E-7 4.7619E-10 32.0383 0.0328894
6638 7.94955E+7 42995.2 7.94955E+7 42995.2 9.8282E-7 5.31577E-10 8.1021E-7 4.82647E-10 32.0241 0.0328895
6639 7.93566E+7 42939.1 7.93566E+7 42939.1 9.95176E-7 5.385E-10 8.20398E-7 4.8893E-10 32.0098 0.0328968
6640 7.93465E+7 42919.2 7.93465E+7 42919.2 0.00000100933 5.45974E-10 8.32092E-7 4.95724E-10 31.9956 0.0328913
6641 7.92409E+7 42873.4 7.92409E+7 42873.4 0.00000102247 5.53227E-10 8.42721E-7 5.02248E-10 31.9813 0.0328956
6642 7.91213E+7 42825.7 7.91213E+7 42825.7 0.00000103557 5.60541E-10 8.54196E-7 5.09091E-10 31.967 0.0329022
6643 7.90618E+7 42793.9 7.90618E+7 42793.9 0.00000104965 5.68165E-10 8.65485E-7 5.15921E-10 31.9528 0.0329023
6644 7.89954E+7 42759.3 7.89954E+7 42759.3 0.00000106383 5.75858E-10 8.77524E-7 5.23005E-10 31.9385 0.0329028
6645 7.89029E+7 42716.8 7.89029E+7 42716.8 0.00000107783 5.8354E-10 8.88922E-7 5.29944E-10 31.9243 0.0329057
6646 7.88206E+7 42678.8 7.88206E+7 42678.8 0.00000109216 5.91392E-10 9.0049E-7 5.3699E-10 31.91 0.0329083
6647 7.88114E+7 42659.7 7.88114E+7 42659.7 0.00000110771 5.99614E-10 9.14242E-7 5.44732E-10 31.8958 0.0329028
6648 7.86246E+7 42593.5 7.86246E+7 42593.5 0.00000112095 6.07279E-10 9.2464E-7 5.51546E-10 31.8815 0.0329163
6649 7.85502E+7 42555.5 7.85502E+7 42555.5 0.00000113597 6.15445E-10 9.36697E-7 5.58863E-10 31.8673 0.0329172
6650 7.84725E+7 42519.7 7.84725E+7 42519.7 0.00000115113 6.23754E-10 9.49222E-7 5.66406E-10 31.853 0.0329196
6651 7.84492E+7 42496.8 7.84492E+7 42496.8 0.00000116732 6.32372E-10 9.63065E-7 5.74396E-10 31.8388 0.0329157
6652 7.83407E+7 42450 7.83407E+7 42450 0.00000118243 6.4074E-10 9.76143E-7 5.82169E-10 31.8245 0.0329203
6653 7.82708E+7 42416 7.82708E+7 42416 0.00000119833 6.49416E-10 9.8887E-7 5.89938E-10 31.8103 0.0329218
6654 7.81803E+7 42375.2 7.81803E+7 42375.2 0.00000121413 6.58107E-10 0.00000100185 5.97812E-10 31.796 0.032925
6655 7.81016E+7 42337.5 7.81016E+7 42337.5 0.00000123032 6.66959E-10 0.00000101518 6.05841E-10 31.7818 0.032927
6656 7.80747E+7 42314.4 7.80747E+7 42314.4 0.00000124756 6.76168E-10 0.0000010299 6.14359E-10 31.7675 0.0329237
6657 7.79748E+7 42271.5 7.79748E+7 42271.5 0.00000126384 6.85172E-10 0.00000104295 6.2243E-10 31.7533 0.032928
6658 7.78938E+7 42232.9 7.78938E+7 42232.9 0.00000128065 6.94374E-10 0.00000105702 6.3084E-10 31.739 0.0329301
6659 7.78128E+7 42195.6 7.78128E+7 42195.6 0.00000129767 7.03714E-10 0.00000107118 6.39359E-10 31.7248 0.0329327
6660 7.7672E+7 42140.3 7.7672E+7 42140.3 0.00000131394 7.12896E-10 0.00000108529 6.47905E-10 31.7105 0.0329409
6661 7.7678E+7 42126.2 7.7678E+7 42126.2 0.00000133289 7.22879E-10 0.00000110074 6.56918E-10 31.6962 0.0329341
6662 7.75591E+7 42077.6 7.75591E+7 42077.6 0.00000134997 7.32416E-10 0.0000011142 6.65397E-10 31.682 0.0329403
6663 7.75419E+7 42058.9 7.75419E+7 42058.9 0.00000136904 7.42598E-10 0.00000113067 6.7486E-10 31.6677 0.0329367
6664 7.74797E+7 42026.1 7.74797E+7 42026.1 0.00000138758 7.5267E-10 0.00000114599 6.84016E-10 31.6535 0.0329371
6665 7.7397E+7 41985.8 7.7397E+7 41985.8 0.000001406 7.62744E-10 0.00000116113 6.93142E-10 31.6392 0.0329388
6666 7.72244E+7 41925 7.72244E+7 41925 0.00000142298 7.72563E-10 0.00000117541 7.02151E-10 31.625 0.0329517
6667 7.71958E+7 41899.6 7.71958E+7 41899.6 0.0000014429 7.83189E-10 0.00000119248 7.11999E-10 31.6107 0.0329478
6668 7.71129E+7 41861.7 7.71129E+7 41861.7 0.00000146203 7.93712E-10 0.00000120806 7.21487E-10 31.5965 0.0329506
6669 7.70262E+7 41822.9 7.70262E+7 41822.9 0.00000148132 8.04341E-10 0.0000012237 7.31064E-10 31.5822 0.0329539
6670 7.70728E+7 41820.5 7.70728E+7 41820.5 0.00000150264 8.15376E-10 0.00000124175 7.41232E-10 31.5685 0.0329429
6671 7.70008E+7 41785.1 7.70008E+7 41785.1 0.00000152076 8.25276E-10 0.00000125658 7.5016E-10 31.5556 0.0329444
6672 7.68553E+7 41728.4 7.68553E+7 41728.4 0.00000153727 8.34681E-10 0.0000012703 7.58738E-10 31.5429 0.0329532
6673 7.67977E+7 41698.4 7.67977E+7 41698.4 0.00000155574 8.44733E-10 0.00000128583 7.67959E-10 31.5302 0.0329537
6674 7.67078E+7 41659.3 7.67078E+7 41659.3 0.00000157376 8.5472E-10 0.00000130035 7.76937E-10 31.5176 0.0329575
6675 7.66294E+7 41621 7.66294E+7 41621 0.00000159223 8.64839E-10 0.00000131572 7.86178E-10 31.5049 0.0329592
6676 7.65935E+7 41594.8 7.65935E+7 41594.8 0.0000016118 8.75328E-10 0.00000133318 7.96078E-10 31.4922 0.0329566
6677 7.6535E+7 41564.9 7.6535E+7 41564.9 0.00000163113 8.85863E-10 0.0000013485 8.05457E-10 31.4795 0.0329573
6678 7.63939E+7 41509.3 7.63939E+7 41509.3 0.00000164891 8.95976E-10 0.00000136309 8.1463E-10 31.4668 0.0329656
6679 7.63989E+7 41496.1 7.63989E+7 41496.1 0.00000167008 9.07132E-10 0.00000138062 8.24773E-10 31.4541 0.0329593
6680 7.62431E+7 41436.5 7.62431E+7 41436.5 0.00000168797 9.17405E-10 0.00000139579 8.34234E-10 31.4414 0.0329693
6681 7.63086E+7 41440.5 7.63086E+7 41440.5 0.00000171099 9.29203E-10 0.00000141489 8.44999E-10 31.4287 0.0329567
6682 7.62027E+7 41396.2 7.62027E+7 41396.2 0.00000173043 9.40064E-10 0.00000143115 8.54919E-10 31.416 0.032962
6683 7.61336E+7 41362.1 7.61336E+7 41362.1 0.00000175095 9.51288E-10 0.00000144818 8.65142E-10 31.4034 0.0329634
6684 7.60905E+7 41334.6 7.60905E+7 41334.6 0.00000177228 9.62785E-10 0.00000146613 8.75687E-10 31.3907 0.0329617
6685 7.60309E+7 41302.7 7.60309E+7 41302.7 0.00000179352 9.74332E-10 0.00000148343 8.86119E-10 31.378 0.0329619
6686 7.58736E+7 41244.6 7.58736E+7 41244.6 0.00000181266 9.85387E-10 0.00000149949 8.96217E-10 31.3653 0.0329729
6687 7.58643E+7 41226.8 7.58643E+7 41226.8 0.00000183558 9.97537E-10 0.0000015187 9.07361E-10 31.3526 0.0329678
6688 7.57782E+7 41187 7.57782E+7 41187 0.00000185691 1.0093E-9 0.00000153737 9.1836E-10 31.3399 0.0329705
6689 7.57681E+7 41169.6 7.57681E+7 41169.6 0.00000188036 1.02175E-9 0.00000155628 9.29533E-10 31.3272 0.0329658
6690 7.56666E+7 41127.1 7.56666E+7 41127.1 0.00000190183 1.03373E-9 0.00000157435 9.4053E-10 31.3145 0.0329708
6691 7.56849E+7 41115.7 7.56849E+7 41115.7 0.00000192659 1.04665E-9 0.00000159458 9.52191E-10 31.3018 0.0329623
6692 7.55349E+7 41060.5 7.55349E+7 41060.5 0.00000194731 1.05858E-9 0.00000161197 9.6313E-10 31.2892 0.0329729
6693 7.54991E+7 41034.7 7.54991E+7 41034.7 0.00000197125 1.07143E-9 0.00000163186 9.74843E-10 31.2765 0.0329703
6694 7.54158E+7 40996.9 7.54158E+7 40996.9 0.00000199422 1.08411E-9 0.00000164993 9.861E-10 31.2638 0.0329733
6695 7.53646E+7 40967.1 7.53646E+7 40967.1 0.00000201831 1.09715E-9 0.00000167076 9.98227E-10 31.2511 0.0329725
6696 7.52918E+7 40932.7 7.52918E+7 40932.7 0.00000204212 1.11024E-9 0.00000169115 1.01033E-9 31.2384 0.0329746
6697 7.52575E+7 40909.3 7.52575E+7 40909.3 0.00000206723 1.12376E-9 0.00000171141 1.02247E-9 31.2257 0.0329727
6698 7.51718E+7 40868.4 7.51718E+7 40868.4 0.00000209126 1.13698E-9 0.0000017317 1.03463E-9 31.213 0.032975
6699 7.5061E+7 40823.7 7.5061E+7 40823.7 0.00000211485 1.15025E-9 0.00000175172 1.04685E-9 31.2003 0.0329813
6700 7.5059E+7 40808.4 7.5059E+7 40808.4 0.00000214179 1.16449E-9 0.00000177355 1.05966E-9 31.1877 0.0329755
6701 7.49913E+7 40775.4 7.49913E+7 40775.4 0.00000216719 1.17841E-9 0.00000179508 1.07248E-9 31.175 0.0329771
6702 7.49381E+7 40744.5 7.49381E+7 40744.5 0.0000021933 1.19255E-9 0.00000181687 1.08539E-9 31.1623 0.0329762
6703 7.47954E+7 40689.4 7.47954E+7 40689.4 0.00000221707 1.20614E-9 0.00000183658 1.09776E-9 31.1496 0.0329854
6704 7.48052E+7 40677.5 7.48052E+7 40677.5 0.00000224567 1.22118E-9 0.00000186108 1.11172E-9 31.1369 0.0329784
6705 7.47972E+7 40660.7 7.47972E+7 40660.7 0.00000227412 1.23627E-9 0.00000188483 1.12549E-9 31.1242 0.0329733
6706 7.47235E+7 40625.8 7.47235E+7 40625.8 0.00000230089 1.25099E-9 0.00000190762 1.13907E-9 31.1115 0.0329754
6707 7.46808E+7 40599.2 7.46808E+7 40599.2 0.00000232893 1.26613E-9 0.00000192997 1.15258E-9 31.0988 0.032974
6708 7.46299E+7 40569.7 7.46299E+7 40569.7 0.00000235706 1.28136E-9 0.00000195369 1.16658E-9 31.0861 0.0329733
6709 7.44647E+7 40506 7.44647E+7 40506 0.0000023819 1.2957E-9 0.00000197489 1.17981E-9 31.0734 0.0329839
6710 7.44147E+7 40470.3 7.44147E+7 40470.3 0.00000241067 1.31107E-9 0.00000199753 1.19345E-9 31.0608 0.0329805
6711 7.43663E+7 40432.5 7.43663E+7 40432.5 0.00000243989 1.32659E-9 0.00000202287 1.20792E-9 31.0481 0.0329758
6712 7.42282E+7 40368.7 7.42282E+7 40368.7 0.00000246644 1.3414E-9 0.00000204473 1.22135E-9 31.0354 0.0329804
6713 7.41828E+7 40331.1 7.41828E+7 40331.1 0.00000249639 1.35725E-9 0.00000206975 1.23584E-9 31.0227 0.0329751
6714 7.40802E+7 40276.4 7.40802E+7 40276.4 0.0000025248 1.37274E-9 0.00000209299 1.24983E-9 31.01 0.0329756
6715 7.39527E+7 40216 7.39527E+7 40216 0.00000255263 1.38818E-9 0.00000211766 1.26439E-9 30.9973 0.0329792
6716 7.38758E+7 40169 7.38758E+7 40169 0.00000258255 1.40426E-9 0.00000214113 1.27862E-9 30.9846 0.0329771
6717 7.37263E+7 40102.5 7.37263E+7 40102.5 0.00000261021 1.41983E-9 0.0000021662 1.29345E-9 30.9719 0.0329832
6718 7.36277E+7 40050.4 7.36277E+7 40050.4 0.00000264003 1.4361E-9 0.00000219007 1.308E-9 30.9593 0.0329838
6719 7.35528E+7 40003.1 7.35528E+7 40003.1 0.000002671 1.45272E-9 0.00000221428 1.32269E-9 30.9466 0.0329811
6720 7.34628E+7 39955.1 7.34628E+7 39955.1 0.0000027018 1.4695E-9 0.00000224186 1.33858E-9 30.9339 0.0329815
6721 7.33629E+7 39901 7.33629E+7 39901 0.00000273258 1.48625E-9 0.00000226638 1.35355E-9 30.9212 0.0329816
6722 7.32683E+7 39850 7.32683E+7 39850 0.00000276391 1.50331E-9 0.00000229287 1.36923E-9 30.9085 0.0329818
6723 7.31436E+7 39791 7.31436E+7 39791 0.00000279444 1.52025E-9 0.00000231889 1.38487E-9 30.8958 0.0329854
6724 7.31087E+7 39756.7 7.31087E+7 39756.7 0.00000282877 1.53833E-9 0.00000234755 1.40137E-9 30.8831 0.0329791
6725 7.30369E+7 39710.5 7.30369E+7 39710.5 0.00000286209 1.55617E-9 0.0000023757 1.41778E-9 30.8704 0.0329761
6726 7.28842E+7 39642.7 7.28842E+7 39642.7 0.00000289254 1.57334E-9 0.00000240079 1.43338E-9 30.8578 0.0329825
6727 7.27869E+7 39589.7 7.27869E+7 39589.7 0.00000292559 1.59131E-9 0.00000242798 1.44966E-9 30.8451 0.0329824
6728 7.26304E+7 39522.4 7.26304E+7 39522.4 0.00000295657 1.60888E-9 0.00000245414 1.46581E-9 30.8324 0.0329899
6729 7.25898E+7 39484.8 7.25898E+7 39484.8 0.00000299266 1.62789E-9 0.00000248425 1.48318E-9 30.8197 0.0329834
6730 7.25318E+7 39444.5 7.25318E+7 39444.5 0.00000302847 1.647E-9 0.00000251468 1.5008E-9 30.807 0.0329797
6731 7.24218E+7 39389.6 7.24218E+7 39389.6 0.00000306248 1.6657E-9 0.00000254326 1.51795E-9 30.7943 0.0329818
6732 7.22833E+7 39325.9 7.22833E+7 39325.9 0.00000309565 1.68424E-9 0.00000257045 1.53474E-9 30.7816 0.0329867
6733 7.22521E+7 39291.7 7.22521E+7 39291.7 0.00000313382 1.70426E-9 0.00000260387 1.55349E-9 30.7689 0.0329794
6734 7.20613E+7 39214.8 7.20613E+7 39214.8 0.00000316548 1.72266E-9 0.00000262986 1.57016E-9 30.7562 0.0329907
6735 7.207E+7 39191.4 7.207E+7 39191.4 0.00000320626 1.7436E-9 0.00000266254 1.58889E-9 30.7436 0.0329789
6736 7.19227E+7 39126 7.19227E+7 39126 0.00000324056 1.76291E-9 0.0000026916 1.60668E-9 30.7309 0.0329851
6737 7.17905E+7 39064.5 7.17905E+7 39064.5 0.00000327592 1.78263E-9 0.00000272129 1.62474E-9 30.7182 0.0329895
6738 7.17162E+7 39018 7.17162E+7 39018 0.00000331433 1.80325E-9 0.00000275387 1.64371E-9 30.7055 0.0329869
6739 7.16536E+7 38977.5 7.16536E+7 38977.5 0.00000335373 1.82438E-9 0.00000278625 1.6629E-9 30.6928 0.0329842
6740 7.15289E+7 38917.7 7.15289E+7 38917.7 0.00000339063 1.84483E-9 0.00000281651 1.6814E-9 30.6801 0.0329876
6741 7.14874E+7 38880.8 7.14874E+7 38880.8 0.00000343194 1.86663E-9 0.00000285202 1.70162E-9 30.6674 0.0329815
6742 7.13196E+7 38810.3 7.13196E+7 38810.3 0.00000346762 1.88704E-9 0.00000288188 1.72028E-9 30.6547 0.0329904
6743 7.1245E+7 38763.9 7.1245E+7 38763.9 0.00000350821 1.90884E-9 0.00000291577 1.74024E-9 30.642 0.0329879
6744 7.11416E+7 38711.5 7.11416E+7 38711.5 0.00000354785 1.9306E-9 0.00000294867 1.76004E-9 30.6294 0.0329895
6745 7.10199E+7 38657.9 7.10199E+7 38657.9 0.00000358701 1.95255E-9 0.00000298254 1.7804E-9 30.6167 0.0329949
6746 7.05223E+7 38519.1 7.05223E+7 38519.1 0.00000360721 1.97031E-9 0.00000299998 1.79671E-9 30.604 0.0330517
6747 6.86849E+7 38069.6 6.86849E+7 38069.6 0.00000355763 1.97196E-9 0.00000296647 1.80046E-9 30.5915 0.033295
6748 6.24905E+7 36469.8 6.24905E+7 36469.8 0.00000327673 1.91244E-9 0.00000274324 1.74963E-9 30.5792 0.034165
6749 4.85164E+7 32355.7 4.85164E+7 32355.7 0.00000257418 1.71683E-9 0.00000216303 1.57373E-9 30.5674 0.0365218
6750 2.96642E+7 25424.5 2.96642E+7 25424.5 0.00000159241 1.36482E-9 0.0000013385 1.25153E-9 30.5557 0.0414024
6751 1.46688E+7 18009.7 1.46688E+7 18009.7 7.97232E-7 9.7898E-10 6.65761E-7 8.94457E-10 30.5434 0.0495554
6752 6.64697E+6 13000.6 6.64697E+6 13000.6 3.65775E-7 7.16247E-10 3.02685E-7 6.50542E-10 30.5309 0.0625622
6753 4.19346E+6 11307.6 4.19346E+6 11307.6 2.34594E-7 6.32436E-10 1.92377E-7 5.7182E-10 30.5144 0.0734325
6754 7.37423E+6 13433.1 7.37423E+6 13433.1 4.19001E-7 7.62482E-10 3.46608E-7 6.9233E-10 30.4989 0.0603439
6755 1.60353E+7 18719 1.60353E+7 18719 9.22461E-7 1.07669E-9 7.71738E-7 9.84574E-10 30.4865 0.0483173
6756 3.12715E+7 25970 3.12715E+7 25970 0.00000182098 1.51222E-9 0.00000153224 1.38728E-9 30.4744 0.0407543
6757 4.92863E+7 32411.6 4.92863E+7 32411.6 0.00000290335 1.90918E-9 0.00000243944 1.75002E-9 30.4628 0.0362656
6758 6.21274E+7 36114.3 6.21274E+7 36114.3 0.000003703 2.15245E-9 0.0000031003 1.9694E-9 30.4511 0.0340964
6759 6.77282E+7 37507.5 6.77282E+7 37507.5 0.00000408649 2.26308E-9 0.00000340891 2.06686E-9 30.4388 0.0332805
6760 6.934E+7 37857.8 6.934E+7 37857.8 0.00000423654 2.31308E-9 0.00000352826 2.11082E-9 30.4263 0.0330448
6761 6.95825E+7 37882.1 6.95825E+7 37882.1 0.0000043055 2.34406E-9 0.00000358265 2.13824E-9 30.4136 0.0329978
6762 6.9532E+7 37841.5 6.9532E+7 37841.5 0.00000435734 2.37147E-9 0.00000362679 2.16352E-9 30.4009 0.0329921
6763 6.94425E+7 37792.8 6.94425E+7 37792.8 0.00000440729 2.39865E-9 0.00000367027 2.18892E-9 30.3883 0.0329921
6764 6.93819E+7 37753.6 6.93819E+7 37753.6 0.00000445965 2.42675E-9 0.00000371214 2.21402E-9 30.3756 0.0329894
6765 6.9278E+7 37701 6.9278E+7 37701 0.00000450982 2.4543E-9 0.00000375498 2.2395E-9 30.3629 0.0329911
6766 6.92456E+7 37668.5 6.92456E+7 37668.5 0.00000456533 2.48353E-9 0.00000380066 2.26601E-9 30.3502 0.0329846
6767 6.91434E+7 37618.2 6.91434E+7 37618.2 0.00000461678 2.51187E-9 0.00000384326 2.29182E-9 30.3375 0.0329869
6768 6.91063E+7 37584.8 6.91063E+7 37584.8 0.00000467321 2.54168E-9 0.00000389025 2.319E-9 30.3248 0.0329811
6769 6.89503E+7 37517.8 6.89503E+7 37517.8 0.00000472219 2.56954E-9 0.00000393242 2.34484E-9 30.3121 0.0329889
6770 6.88554E+7 37468.9 6.88554E+7 37468.9 0.00000477592 2.59897E-9 0.00000397618 2.37145E-9 30.2994 0.0329901
6771 6.88126E+7 37434.9 6.88126E+7 37434.9 0.00000483389 2.62977E-9 0.00000402762 2.40042E-9 30.2868 0.0329855
6772 6.87258E+7 37388.7 6.87258E+7 37388.7 0.00000488943 2.66005E-9 0.00000407443 2.42826E-9 30.2741 0.0329859
6773 6.86491E+7 37343.2 6.86491E+7 37343.2 0.00000494636 2.69075E-9 0.00000412072 2.45598E-9 30.2614 0.0329842
6774 6.85392E+7 37289.8 6.85392E+7 37289.8 0.0000050015 2.72121E-9 0.00000416475 2.48319E-9 30.2487 0.032987
6775 6.84875E+7 37252.2 6.84875E+7 37252.2 0.00000506156 2.75319E-9 0.00000421636 2.51281E-9 30.236 0.0329829
6776 6.8417E+7 37209.2 6.8417E+7 37209.2 0.00000512086 2.7851E-9 0.00000426713 2.54237E-9 30.2233 0.0329808
6777 6.82597E+7 37143.9 6.82597E+7 37143.9 0.0000051744 2.81575E-9 0.00000431138 2.57023E-9 30.2106 0.0329898
6778 6.82083E+7 37105.9 6.82083E+7 37105.9 0.00000523652 2.84879E-9 0.00000436153 2.59992E-9 30.1979 0.0329853
6779 6.81056E+7 37055.1 6.81056E+7 37055.1 0.0000052954 2.88122E-9 0.00000441119 2.62967E-9 30.1852 0.0329876
6780 6.80067E+7 37005 6.80067E+7 37005 0.00000535521 2.91404E-9 0.00000446349 2.66041E-9 30.1726 0.0329892
6781 6.78882E+7 36948.9 6.78882E+7 36948.9 0.00000541417 2.9468E-9 0.00000451166 2.69004E-9 30.1599 0.032993
6782 6.78833E+7 36926.4 6.78833E+7 36926.4 0.00000548289 2.9826E-9 0.00000456846 2.72253E-9 30.1472 0.0329841
6783 6.77713E+7 36872 6.77713E+7 36872 0.00000554371 3.01621E-9 0.00000462075 2.75374E-9 30.1345 0.032987
6784 6.76398E+7 36813.1 6.76398E+7 36813.1 0.00000560361 3.04986E-9 0.00000467114 2.78458E-9 30.1218 0.0329927
6785 6.75608E+7 36768.4 6.75608E+7 36768.4 0.00000566859 3.08508E-9 0.0000047264 2.81703E-9 30.1091 0.0329919
6786 6.74834E+7 36723.7 6.74834E+7 36723.7 0.00000573436 3.12066E-9 0.00000477861 2.84876E-9 30.0964 0.0329908
6787 6.74555E+7 36692.6 6.74555E+7 36692.6 0.00000580523 3.15785E-9 0.00000484122 2.88376E-9 30.0837 0.0329836
6788 6.73085E+7 36630.9 6.73085E+7 36630.9 0.00000586647 3.19276E-9 0.00000489207 2.91555E-9 30.0711 0.0329918
6789 6.7268E+7 36595.5 6.7268E+7 36595.5 0.00000593782 3.23042E-9 0.00000495304 2.95041E-9 30.0584 0.0329859
6790 6.72362E+7 36564.3 6.72362E+7 36564.3 0.00000601081 3.26888E-9 0.00000501364 2.98545E-9 30.0457 0.0329796
6791 6.70966E+7 36502.9 6.70966E+7 36502.9 0.00000607491 3.30506E-9 0.00000506657 3.01832E-9 30.033 0.0329861
6792 6.70351E+7 36463.3 6.70351E+7 36463.3 0.00000614688 3.34365E-9 0.00000512657 3.05356E-9 30.0203 0.0329834
6793 6.69111E+7 36406.9 6.69111E+7 36406.9 0.00000621387 3.38111E-9 0.00000518224 3.08766E-9 30.0076 0.0329884
6794 6.68423E+7 36364.3 6.68423E+7 36364.3 0.00000628674 3.42028E-9 0.00000524419 3.12385E-9 29.9949 0.032986
6795 6.67071E+7 36305.4 6.67071E+7 36305.4 0.00000635415 3.45835E-9 0.00000530157 3.15894E-9 29.9822 0.0329927
6796 6.66196E+7 36258.3 6.66196E+7 36258.3 0.00000642686 3.49797E-9 0.00000536116 3.19483E-9 29.9695 0.0329929
6797 6.65808E+7 36224.1 6.65808E+7 36224.1 0.00000650512 3.53928E-9 0.00000542878 3.23324E-9 29.9568 0.0329869
6798 6.65112E+7 36182.5 6.65112E+7 36182.5 0.00000658123 3.58033E-9 0.00000549 3.27007E-9 29.9442 0.0329852
6799 6.64275E+7 36137.2 6.64275E+7 36137.2 0.00000665696 3.62154E-9 0.00000555301 3.30766E-9 29.9315 0.0329853
6800 6.63458E+7 36091.3 6.63458E+7 36091.3 0.00000673366 3.66312E-9 0.00000561909 3.34629E-9 29.9188 0.0329847
6801 6.62228E+7 36035.7 6.62228E+7 36035.7 0.00000680698 3.70418E-9 0.00000568108 3.38403E-9 29.9061 0.0329899
6802 6.6141E+7 35989.3 6.6141E+7 35989.3 0.00000688538 3.74664E-9 0.00000574618 3.42271E-9 29.8934 0.032989
6803 6.60265E+7 35936.8 6.60265E+7 35936.8 0.00000696126 3.78897E-9 0.00000581124 3.46185E-9 29.8807 0.0329935
6804 6.59551E+7 35893.3 6.59551E+7 35893.3 0.00000704249 3.83268E-9 0.00000588004 3.50209E-9 29.868 0.0329914
6805 6.58599E+7 35844.6 6.58599E+7 35844.6 0.00000712218 3.87639E-9 0.0000059454 3.54173E-9 29.8553 0.0329928
6806 6.57916E+7 35803.4 6.57916E+7 35803.4 0.00000720565 3.92138E-9 0.00000601587 3.58304E-9 29.8426 0.032991
6807 6.57246E+7 35762.7 6.57246E+7 35762.7 0.00000729018 3.96691E-9 0.0000060865 3.62467E-9 29.83 0.032989
6808 6.56581E+7 35722.2 6.56581E+7 35722.2 0.00000737582 4.01302E-9 0.00000615652 3.66635E-9 29.8173 0.032987
6809 6.55432E+7 35668.2 6.55432E+7 35668.2 0.000007457 4.05816E-9 0.00000622844 3.70883E-9 29.8046 0.032991
6810 6.54465E+7 35618.8 6.54465E+7 35618.8 0.00000754104 4.10426E-9 0.00000629631 3.75017E-9 29.7919 0.0329924
6811 6.54294E+7 35591.6 6.54294E+7 35591.6 0.00000763537 4.15352E-9 0.00000637694 3.79586E-9 29.7792 0.0329841
6812 6.53395E+7 35544.4 6.53395E+7 35544.4 0.00000772218 4.20094E-9 0.00000645504 3.84086E-9 29.7665 0.0329849
6813 6.52165E+7 35487.8 6.52165E+7 35487.8 0.00000780608 4.24782E-9 0.00000652249 3.88288E-9 29.7538 0.0329897
6814 6.51224E+7 35438.5 6.51224E+7 35438.5 0.00000789434 4.29608E-9 0.00000659466 3.92651E-9 29.7411 0.0329906
6815 6.50498E+7 35396.9 6.50498E+7 35396.9 0.00000798625 4.34584E-9 0.00000667117 3.97191E-9 29.7285 0.0329896
6816 6.49756E+7 35353.3 6.49756E+7 35353.3 0.000008079 4.3959E-9 0.00000674922 4.01785E-9 29.7158 0.0329881
6817 6.4874E+7 35303.6 6.4874E+7 35303.6 0.00000816935 4.44577E-9 0.00000682546 4.0637E-9 29.7031 0.0329908
6818 6.47647E+7 35251 6.47647E+7 35251 0.00000825978 4.49585E-9 0.00000690234 4.10981E-9 29.6904 0.0329939
6819 6.47277E+7 35218.5 6.47277E+7 35218.5 0.00000836042 4.54904E-9 0.00000698686 4.15853E-9 29.6777 0.0329882
6820 6.46778E+7 35182.4 6.46778E+7 35182.4 0.00000846073 4.60246E-9 0.00000707292 4.20809E-9 29.665 0.032984
6821 6.45368E+7 35121.3 6.45368E+7 35121.3 0.00000855011 4.65314E-9 0.00000714885 4.25483E-9 29.6523 0.0329913
6822 6.44471E+7 35074.7 6.44471E+7 35074.7 0.00000864721 4.70628E-9 0.0000072266 4.30237E-9 29.6396 0.0329923
6823 6.44109E+7 35041 6.44109E+7 35041 0.00000875266 4.76178E-9 0.0000073153 4.35321E-9 29.6269 0.0329858
6824 6.43071E+7 34991.2 6.43071E+7 34991.2 0.00000885022 4.81578E-9 0.0000073989 4.40325E-9 29.6142 0.0329889
6825 6.41843E+7 34934.8 6.41843E+7 34934.8 0.0000089461 4.86938E-9 0.00000747976 4.45254E-9 29.6016 0.0329938
6826 6.41443E+7 34901.1 6.41443E+7 34901.1 0.00000905467 4.9268E-9 0.00000757038 4.50495E-9 29.5889 0.0329882
6827 6.40394E+7 34850.3 6.40394E+7 34850.3 0.0000091553 4.98246E-9 0.00000765592 4.55626E-9 29.5762 0.0329912
6828 6.39721E+7 34809.7 6.39721E+7 34809.7 0.00000926243 5.04017E-9 0.00000774804 4.60967E-9 29.5635 0.0329892
6829 6.38923E+7 34764.5 6.38923E+7 34764.5 0.00000936897 5.0979E-9 0.00000783848 4.66289E-9 29.5508 0.0329884
6830 6.3767E+7 34707.7 6.3767E+7 34707.7 0.00000947 5.15456E-9 0.00000792 4.71392E-9 29.5381 0.0329938
6831 6.37214E+7 34673.4 6.37214E+7 34673.4 0.00000958411 5.21525E-9 0.00000801611 4.7696E-9 29.5254 0.0329893
6832 6.36177E+7 34623.1 6.36177E+7 34623.1 0.00000969074 5.27421E-9 0.00000810638 4.82382E-9 29.5127 0.0329923
6833 6.35297E+7 34575.7 6.35297E+7 34575.7 0.00000980085 5.33419E-9 0.00000820123 4.87951E-9 29.5001 0.0329925
6834 6.34701E+7 34537.7 6.34701E+7 34537.7 0.00000991671 5.39639E-9 0.0000082974 4.93615E-9 29.4874 0.0329898
6835 6.33583E+7 34484.2 6.33583E+7 34484.2 0.0000100257 5.45685E-9 0.00000839135 4.9923E-9 29.4747 0.0329933
6836 6.33175E+7 34450.1 6.33175E+7 34450.1 0.0000101472 5.52107E-9 0.00000849341 5.05121E-9 29.462 0.0329876
6837 6.32188E+7 34400.7 6.32188E+7 34400.7 0.0000102607 5.58354E-9 0.00000858735 5.10801E-9 29.4493 0.0329897
6838 6.3158E+7 34362.8 6.3158E+7 34362.8 0.0000103817 5.64858E-9 0.00000868926 5.16771E-9 29.4366 0.0329874
6839 6.30671E+7 34314.7 6.30671E+7 34314.7 0.0000104992 5.71272E-9 0.00000879051 5.22721E-9 29.4239 0.032988
6840 6.29955E+7 34273.1 6.29955E+7 34273.1 0.0000106212 5.77868E-9 0.00000889022 5.28684E-9 29.4112 0.0329868
6841 6.2868E+7 34216.7 6.2868E+7 34216.7 0.0000107351 5.84289E-9 0.00000898943 5.34671E-9 29.3985 0.032993
6842 6.28165E+7 34178.8 6.28165E+7 34178.8 0.0000108632 5.9109E-9 0.00000909294 5.40783E-9 29.3859 0.0329883
6843 6.27392E+7 34137 6.27392E+7 34137 0.0000109884 5.97903E-9 0.00000919917 5.47066E-9 29.3732 0.0329884
6844 6.26325E+7 34085.3 6.26325E+7 34085.3 0.0000111098 6.04621E-9 0.0000093034 5.53285E-9 29.3605 0.0329915
6845 6.2565E+7 34045.3 6.2565E+7 34045.3 0.0000112395 6.11625E-9 0.00000941262 5.59708E-9 29.3478 0.0329899
6846 6.25108E+7 34007.5 6.25108E+7 34007.5 0.0000113733 6.1875E-9 0.00000952284 5.66182E-9 29.3351 0.0329858
6847 6.24094E+7 33957.5 6.24094E+7 33957.5 0.0000114997 6.25726E-9 0.00000963553 5.72764E-9 29.3224 0.0329884
6848 6.22992E+7 33905.2 6.22992E+7 33905.2 0.0000116259 6.32737E-9 0.00000973441 5.78981E-9 29.3097 0.0329921
6849 6.22661E+7 33874.1 6.22661E+7 33874.1 0.0000117682 6.40232E-9 0.00000985939 5.86011E-9 29.297 0.0329857
6850 6.21914E+7 33830.7 6.21914E+7 33830.7 0.0000119042 6.47578E-9 0.00000997425 5.92761E-9 29.2843 0.0329844
6851 6.20348E+7 33766.5 6.20348E+7 33766.5 0.0000120258 6.54601E-9 0.0000100705 5.99029E-9 29.2717 0.0329946
6852 6.2026E+7 33741.9 6.2026E+7 33741.9 0.0000121777 6.6248E-9 0.0000102017 6.06349E-9 29.259 0.0329849
6853 6.18993E+7 33686.1 6.18993E+7 33686.1 0.000012308 6.69827E-9 0.0000103085 6.13006E-9 29.2463 0.0329914
6854 6.1812E+7 33639.3 6.1812E+7 33639.3 0.0000124476 6.77441E-9 0.0000104298 6.20101E-9 29.2336 0.0329917
6855 6.17793E+7 33608.2 6.17793E+7 33608.2 0.0000125998 6.85456E-9 0.0000105581 6.2746E-9 29.2209 0.0329852
6856 6.16753E+7 33558.3 6.16753E+7 33558.3 0.0000127393 6.93178E-9 0.0000106788 6.3465E-9 29.2082 0.0329885
6857 6.15664E+7 33506 6.15664E+7 33506 0.0000128791 7.00935E-9 0.0000107922 6.41647E-9 29.1955 0.0329919
6858 6.15295E+7 33474.4 6.15295E+7 33474.4 0.0000130358 7.09216E-9 0.0000109209 6.49145E-9 29.1828 0.0329862
6859 6.14217E+7 33424.1 6.14217E+7 33424.1 0.0000131791 7.17192E-9 0.0000110414 6.56451E-9 29.1702 0.0329903
6860 6.13398E+7 33381.7 6.13398E+7 33381.7 0.0000133296 7.25431E-9 0.0000111757 6.64239E-9 29.1575 0.0329914
6861 6.12879E+7 33345.8 6.12879E+7 33345.8 0.0000134884 7.33905E-9 0.0000113059 6.71918E-9 29.1448 0.0329876
6862 6.12287E+7 33308.9 6.12287E+7 33308.9 0.0000136475 7.42456E-9 0.0000114397 6.79748E-9 29.1321 0.0329853
6863 6.11286E+7 33260.9 6.11286E+7 33260.9 0.0000137992 7.5085E-9 0.000011572 6.87601E-9 29.1194 0.0329885
6864 6.10579E+7 33221.8 6.10579E+7 33221.8 0.0000139592 7.59542E-9 0.0000117074 6.95599E-9 29.1067 0.0329882
6865 6.09796E+7 33178.2 6.09796E+7 33178.2 0.0000141193 7.68232E-9 0.0000118423 7.0356E-9 29.094 0.0329877
6866 6.08711E+7 33128 6.08711E+7 33128 0.0000142743 7.7687E-9 0.0000119708 7.11431E-9 29.0813 0.0329921
6867 6.07896E+7 33085.3 6.07896E+7 33085.3 0.0000144371 7.8577E-9 0.0000121098 7.19657E-9 29.0686 0.0329929
6868 6.07377E+7 33050.6 6.07377E+7 33050.6 0.0000146091 7.94977E-9 0.0000122569 7.28178E-9 29.0559 0.0329897
6869 6.06643E+7 33010 6.06643E+7 33010 0.0000147777 8.04137E-9 0.0000123974 7.36533E-9 29.0433 0.0329894
6870 6.06277E+7 32979.1 6.06277E+7 32979.1 0.0000149573 8.13639E-9 0.0000125476 7.45218E-9 29.0306 0.0329839
6871 6.04852E+7 32919.6 6.04852E+7 32919.6 0.0000151127 8.22546E-9 0.0000126791 7.53413E-9 29.0179 0.0329929
6872 6.04608E+7 32892.3 6.04608E+7 32892.3 0.0000152995 8.32356E-9 0.0000128327 7.62305E-9 29.0052 0.0329859
6873 6.03507E+7 32841.3 6.03507E+7 32841.3 0.0000154667 8.41682E-9 0.0000129725 7.70831E-9 28.9925 0.0329903
6874 6.02534E+7 32794.5 6.02534E+7 32794.5 0.0000156389 8.51208E-9 0.0000131185 7.79603E-9 28.9798 0.0329934
6875 6.02051E+7 32761.3 6.02051E+7 32761.3 0.0000158259 8.61209E-9 0.0000132787 7.8887E-9 28.9671 0.03299
6876 6.012E+7 32716.6 6.012E+7 32716.6 0.0000160055 8.71024E-9 0.0000134356 7.98033E-9 28.9544 0.0329908
6877 6.00932E+7 32687.6 6.00932E+7 32687.6 0.0000162026 8.81362E-9 0.000013601 8.07513E-9 28.9417 0.0329835
6878 5.99841E+7 32638.1 5.99841E+7 32638.1 0.0000163797 8.91265E-9 0.0000137478 8.16528E-9 28.9291 0.0329885
6879 5.98882E+7 32592 5.98882E+7 32592 0.0000165623 9.01368E-9 0.0000138996 8.25748E-9 28.9164 0.0329916
6880 5.97873E+7 32543.1 5.97873E+7 32543.1 0.0000167456 9.11509E-9 0.0000140598 8.35215E-9 28.9037 0.0329946
6881 5.97353E+7 32508.9 5.97353E+7 32508.9 0.0000169445 9.2217E-9 0.0000142171 8.4469E-9 28.891 0.0329916
6882 5.96555E+7 32465.7 5.96555E+7 32465.7 0.0000171381 9.32716E-9 0.0000143849 8.54527E-9 28.8783 0.0329917
6883 5.96557E+7 32445.9 5.96557E+7 32445.9 0.000017357 9.44047E-9 0.0000145759 8.65116E-9 28.8656 0.0329816
6884 5.95152E+7 32386.5 5.95152E+7 32386.5 0.0000175372 9.54349E-9 0.0000147278 8.74564E-9 28.8529 0.0329903
6885 5.9474E+7 32354.4 5.9474E+7 32354.4 0.0000177488 9.65576E-9 0.0000149118 8.85054E-9 28.8402 0.0329853
6886 5.93474E+7 32299.6 5.93474E+7 32299.6 0.0000179373 9.76254E-9 0.0000150731 8.94924E-9 28.8275 0.0329925
6887 5.93202E+7 32273.1 5.93202E+7 32273.1 0.0000181578 9.87902E-9 0.0000152498 9.05342E-9 28.8149 0.0329866
6888 5.92099E+7 32221.4 5.92099E+7 32221.4 0.0000183556 9.98917E-9 0.0000154161 9.15444E-9 28.8022 0.0329908
6889 5.91934E+7 32195.7 5.91934E+7 32195.7 0.0000185849 1.01087E-8 0.0000156192 9.2672E-9 28.7895 0.0329822
6890 5.90553E+7 32137.8 5.90553E+7 32137.8 0.0000187782 1.02194E-8 0.0000157716 9.36554E-9 28.7768 0.0329911
6891 5.89858E+7 32099 5.89858E+7 32099 0.0000189956 1.03373E-8 0.0000159589 9.47494E-9 28.7641 0.0329906
6892 5.89153E+7 32058.6 5.89153E+7 32058.6 0.0000192153 1.04562E-8 0.0000161461 9.5848E-9 28.7514 0.0329895
6893 5.88234E+7 32013.8 5.88234E+7 32013.8 0.0000194303 1.0575E-8 0.0000163258 9.69353E-9 28.7387 0.0329922
6894 5.8804E+7 31987.5 5.8804E+7 31987.5 0.0000196718 1.07011E-8 0.0000165321 9.81009E-9 28.726 0.0329841
6895 5.86753E+7 31932.3 5.86753E+7 31932.3 0.0000198793 1.0819E-8 0.0000167112 9.91951E-9 28.7134 0.0329918
6896 5.86131E+7 31895.6 5.86131E+7 31895.6 0.000020112 1.09447E-8 0.0000168944 1.0031E-8 28.7007 0.0329903
6897 5.85025E+7 31844.8 5.85025E+7 31844.8 0.0000203303 1.10667E-8 0.0000170915 1.0147E-8 28.688 0.0329952
6898 5.84972E+7 31822.5 5.84972E+7 31822.5 0.0000205883 1.12003E-8 0.0000173125 1.02706E-8 28.6753 0.0329851
6899 5.8394E+7 31774.8 5.8394E+7 31774.8 0.000020814 1.13261E-8 0.0000175013 1.03856E-8 28.6626 0.0329894
6900 5.83202E+7 31733.4 5.83202E+7 31733.4 0.0000210534 1.1456E-8 0.0000177027 1.05048E-8 28.6499 0.0329888
6901 5.82476E+7 31693.2 5.82476E+7 31693.2 0.0000212957 1.15875E-8 0.0000179125 1.06273E-8 28.6372 0.0329885
6902 5.81039E+7 31634.7 5.81039E+7 31634.7 0.0000215143 1.17138E-8 0.0000180837 1.07393E-8 28.6245 0.0329988
6903 5.80923E+7 31611.2 5.80923E+7 31611.2 0.0000217848 1.18546E-8 0.0000183142 1.08693E-8 28.6118 0.0329897
6904 5.79999E+7 31565.5 5.79999E+7 31565.5 0.0000220277 1.19886E-8 0.00001852 1.09926E-8 28.5992 0.0329921
6905 5.79119E+7 31521.9 5.79119E+7 31521.9 0.0000222753 1.2125E-8 0.0000187276 1.11175E-8 28.5865 0.0329944
6906 5.78157E+7 31473.8 5.78157E+7 31473.8 0.0000225223 1.2261E-8 0.0000189445 1.12451E-8 28.5738 0.0329966
6907 5.77465E+7 31436 5.77465E+7 31436 0.0000227825 1.24027E-8 0.0000191643 1.13753E-8 28.5611 0.0329966
6908 5.76956E+7 31400.5 5.76956E+7 31400.5 0.0000230531 1.25468E-8 0.0000193982 1.15094E-8 28.5484 0.0329925
6909 5.76287E+7 31362.6 5.76287E+7 31362.6 0.0000233204 1.26917E-8 0.0000196214 1.16416E-8 28.5357 0.0329917
6910 5.75824E+7 31330.4 5.75824E+7 31330.4 0.0000235993 1.28406E-8 0.000019863 1.17802E-8 28.523 0.032988
6911 5.74832E+7 31281.9 5.74832E+7 31281.9 0.0000238596 1.29845E-8 0.0000200784 1.19112E-8 28.5103 0.0329909
6912 5.73605E+7 31228.5 5.73605E+7 31228.5 0.0000241126 1.31278E-8 0.0000202881 1.20417E-8 28.4976 0.032998
6913 5.73687E+7 31211 5.73687E+7 31211 0.0000244239 1.3288E-8 0.0000205419 1.21863E-8 28.485 0.0329863
6914 5.7225E+7 31151.8 5.7225E+7 31151.8 0.0000246738 1.34321E-8 0.0000207637 1.2322E-8 28.4723 0.0329964
6915 5.72022E+7 31125.9 5.72022E+7 31125.9 0.000024971 1.3588E-8 0.0000210157 1.24654E-8 28.4599 0.0329892
6916 5.71364E+7 31086.7 5.71364E+7 31086.7 0.0000252154 1.37194E-8 0.0000212262 1.25874E-8 28.449 0.0329874
6917 5.70145E+7 31033 5.70145E+7 31033 0.0000254058 1.38286E-8 0.0000213852 1.26872E-8 28.4394 0.0329941
6918 5.69801E+7 31004.5 5.69801E+7 31004.5 0.0000256342 1.39485E-8 0.0000215826 1.27988E-8 28.4298 0.0329889
6919 5.68171E+7 30940 5.68171E+7 30940 0.0000258058 1.40529E-8 0.0000217179 1.28919E-8 28.4203 0.0330018
6920 5.68209E+7 30920.8 5.68209E+7 30920.8 0.0000260553 1.4179E-8 0.0000219351 1.30098E-8 28.4107 0.0329904
6921 5.67648E+7 30885.7 5.67648E+7 30885.7 0.0000262793 1.42987E-8 0.0000221259 1.31204E-8 28.4012 0.032988
6922 5.66765E+7 30841.5 5.66765E+7 30841.5 0.00002649 1.44152E-8 0.0000223075 1.32284E-8 28.3916 0.03299
6923 5.65535E+7 30788.1 5.65535E+7 30788.1 0.0000266862 1.45283E-8 0.0000224726 1.33322E-8 28.3821 0.0329973
6924 5.64901E+7 30750.2 5.64901E+7 30750.2 0.000026912 1.46497E-8 0.0000226644 1.34441E-8 28.3725 0.0329955
6925 5.6454E+7 30720.7 5.6454E+7 30720.7 0.0000271529 1.47761E-8 0.000022874 1.3562E-8 28.363 0.0329902
6926 5.63482E+7 30671.4 5.63482E+7 30671.4 0.0000273619 1.48938E-8 0.000023041 1.36674E-8 28.3534 0.0329946
6927 5.63077E+7 30640.3 5.63077E+7 30640.3 0.0000276046 1.50215E-8 0.0000232616 1.37892E-8 28.3439 0.0329898
6928 5.62237E+7 30598.2 5.62237E+7 30598.2 0.0000278279 1.51448E-8 0.0000234437 1.39009E-8 28.3343 0.0329917
6929 5.61491E+7 30557.1 5.61491E+7 30557.1 0.0000280576 1.52695E-8 0.0000236258 1.40116E-8 28.3248 0.0329914
6930 5.60664E+7 30515 5.60664E+7 30515 0.000028285 1.53948E-8 0.0000238359 1.41323E-8 28.3152 0.032993
6931 5.60328E+7 30485.5 5.60328E+7 30485.5 0.0000285394 1.55275E-8 0.0000240416 1.42516E-8 28.3057 0.032987
6932 5.59264E+7 30435.5 5.59264E+7 30435.5 0.0000287584 1.56507E-8 0.0000242385 1.43682E-8 28.2961 0.0329913
6933 5.58725E+7 30401.4 5.58725E+7 30401.4 0.0000290064 1.57832E-8 0.0000244406 1.44878E-8 28.2866 0.0329886
6934 5.57937E+7 30361 5.57937E+7 30361 0.0000292433 1.59134E-8 0.000024647 1.46093E-8 28.277 0.03299
6935 5.569E+7 30312 5.569E+7 30312 0.0000294689 1.60401E-8 0.0000248247 1.47221E-8 28.2675 0.032994
6936 5.56074E+7 30269.7 5.56074E+7 30269.7 0.0000297075 1.61714E-8 0.0000250303 1.48439E-8 28.2579 0.0329955
6937 5.5549E+7 30233.9 5.5549E+7 30233.9 0.0000299611 1.63073E-8 0.0000252506 1.49706E-8 28.2484 0.0329933
6938 5.55134E+7 30204.8 5.55134E+7 30204.8 0.0000302293 1.6448E-8 0.0000254827 1.51017E-8 28.2388 0.032988
6939 5.54439E+7 30165 5.54439E+7 30165 0.000030481 1.65838E-8 0.0000257018 1.52281E-8 28.2293 0.0329869
6940 5.53606E+7 30122.9 5.53606E+7 30122.9 0.000030727 1.67195E-8 0.0000259079 1.53525E-8 28.2197 0.0329887
6941 5.52468E+7 30072.5 5.52468E+7 30072.5 0.0000309582 1.68517E-8 0.0000260959 1.54719E-8 28.2102 0.032995
6942 5.51787E+7 30034.3 5.51787E+7 30034.3 0.0000312167 1.69918E-8 0.0000263212 1.56029E-8 28.2006 0.0329944
6943 5.51369E+7 30002.3 5.51369E+7 30002.3 0.0000314922 1.71364E-8 0.0000265566 1.57364E-8 28.1911 0.0329893
6944 5.5026E+7 29952.6 5.5026E+7 29952.6 0.0000317306 1.72723E-8 0.0000267569 1.58611E-8 28.1815 0.0329951
6945 5.49944E+7 29923.6 5.49944E+7 29923.6 0.0000320165 1.74211E-8 0.0000270096 1.60012E-8 28.172 0.0329886
6946 5.48529E+7 29866.1 5.48529E+7 29866.1 0.0000322405 1.75545E-8 0.0000271906 1.61212E-8 28.1625 0.0329994
6947 5.48357E+7 29841.5 5.48357E+7 29841.5 0.0000325395 1.77082E-8 0.0000274526 1.62653E-8 28.1529 0.032991
6948 5.47354E+7 29794.2 5.47354E+7 29794.2 0.0000327916 1.78498E-8 0.0000276587 1.63936E-8 28.1434 0.032995
6949 5.4685E+7 29761 5.4685E+7 29761 0.0000330756 1.80009E-8 0.0000278981 1.65318E-8 28.1338 0.0329918
6950 5.46074E+7 29719.5 5.46074E+7 29719.5 0.0000333457 1.81483E-8 0.0000281373 1.66708E-8 28.1243 0.0329922
6951 5.45296E+7 29679.4 5.45296E+7 29679.4 0.0000336177 1.82977E-8 0.0000283571 1.68053E-8 28.1147 0.0329935
6952 5.44159E+7 29628.2 5.44159E+7 29628.2 0.0000338696 1.84415E-8 0.0000285848 1.69417E-8 28.1052 0.0329994
6953 5.43769E+7 29597.7 5.43769E+7 29597.7 0.0000341698 1.85991E-8 0.0000288313 1.70844E-8 28.0956 0.0329943
6954 5.43146E+7 29561.4 5.43146E+7 29561.4 0.000034458 1.87545E-8 0.0000290783 1.72284E-8 28.0861 0.0329929
6955 5.42336E+7 29518.5 5.42336E+7 29518.5 0.0000347367 1.89069E-8 0.0000293088 1.73669E-8 28.0765 0.0329936
6956 5.41725E+7 29483.4 5.41725E+7 29483.4 0.0000350306 1.90657E-8 0.0000295729 1.75176E-8 28.067 0.0329925
6957 5.40797E+7 29438.1 5.40797E+7 29438.1 0.0000353062 1.92191E-8 0.0000297952 1.76556E-8 28.0574 0.0329955
6958 5.40139E+7 29400.5 5.40139E+7 29400.5 0.0000356015 1.93786E-8 0.0000300541 1.78049E-8 28.0479 0.0329945
6959 5.39339E+7 29359.5 5.39339E+7 29359.5 0.0000358897 1.95372E-8 0.0000302963 1.79503E-8 28.0383 0.0329959
6960 5.38916E+7 29328.1 5.38916E+7 29328.1 0.0000362055 1.97035E-8 0.0000305679 1.81047E-8 28.0288 0.0329912
6961 5.38419E+7 29294.4 5.38419E+7 29294.4 0.000036519 1.98696E-8 0.0000308354 1.82579E-8 28.0192 0.0329874
6962 5.37262E+7 29243.3 5.37262E+7 29243.3 0.0000367906 2.00255E-8 0.0000310582 1.83991E-8 28.0097 0.0329941
6963 5.36587E+7 29204.9 5.36587E+7 29204.9 0.0000370968 2.0191E-8 0.0000313243 1.85539E-8 28.0001 0.0329932
6964 5.36328E+7 29179 5.36328E+7 29179 0.0000374347 2.03667E-8 0.0000316146 1.87165E-8 27.9906 0.0329865
6965 5.3511E+7 29126.3 5.3511E+7 29126.3 0.0000377077 2.05248E-8 0.0000318457 1.8862E-8 27.981 0.0329942
6966 5.34465E+7 29088.7 5.34465E+7 29088.7 0.0000380239 2.06951E-8 0.0000321307 1.90241E-8 27.9715 0.0329928
6967 5.33555E+7 29045.4 5.33555E+7 29045.4 0.0000383231 2.08625E-8 0.0000323687 1.91734E-8 27.9619 0.0329963
6968 5.33129E+7 29015.7 5.33129E+7 29015.7 0.0000386599 2.1041E-8 0.0000326654 1.9341E-8 27.9524 0.0329926
6969 5.32181E+7 28970.7 5.32181E+7 28970.7 0.0000389615 2.121E-8 0.0000329171 1.94956E-8 27.9428 0.0329964
6970 5.31733E+7 28940.2 5.31733E+7 28940.2 0.000039302 2.13909E-8 0.0000332172 1.96653E-8 27.9333 0.0329929
6971 5.31004E+7 28901.3 5.31004E+7 28901.3 0.0000396247 2.1567E-8 0.0000334872 1.98266E-8 27.9238 0.0329933
6972 5.3072E+7 28875.4 5.3072E+7 28875.4 0.0000399834 2.17545E-8 0.0000337852 1.99973E-8 27.9142 0.0329874
6973 5.29357E+7 28819.5 5.29357E+7 28819.5 0.0000402634 2.19208E-8 0.0000340164 2.01485E-8 27.9047 0.0329979
6974 5.28886E+7 28788.2 5.28886E+7 28788.2 0.0000406137 2.2107E-8 0.0000343363 2.03265E-8 27.8951 0.0329946
6975 5.28258E+7 28753.3 5.28258E+7 28753.3 0.0000409547 2.22921E-8 0.0000345957 2.04887E-8 27.8856 0.0329941
6976 5.2765E+7 28718.1 5.2765E+7 28718.1 0.0000413 2.24784E-8 0.0000349083 2.0666E-8 27.876 0.032993
6977 5.2676E+7 28674.6 5.2676E+7 28674.6 0.0000416257 2.26596E-8 0.0000351864 2.08333E-8 27.8665 0.0329958
6978 5.26185E+7 28640.8 5.26185E+7 28640.8 0.0000419792 2.28501E-8 0.0000354864 2.10088E-8 27.8569 0.0329944
6979 5.25632E+7 28607.9 5.25632E+7 28607.9 0.0000423374 2.30428E-8 0.0000358012 2.11895E-8 27.8474 0.0329927
6980 5.24499E+7 28558.9 5.24499E+7 28558.9 0.0000426515 2.3224E-8 0.0000360637 2.13554E-8 27.8378 0.0330001
6981 5.24029E+7 28526.6 5.24029E+7 28526.6 0.0000430223 2.34204E-8 0.0000363727 2.15346E-8 27.8283 0.0329962
6982 5.23774E+7 28501.9 5.23774E+7 28501.9 0.0000434138 2.36246E-8 0.0000367172 2.17263E-8 27.8187 0.0329899
6983 5.22765E+7 28455.5 5.22765E+7 28455.5 0.0000437458 2.38123E-8 0.0000369978 2.18987E-8 27.8092 0.0329948
6984 5.22098E+7 28420 5.22098E+7 28420 0.0000441091 2.40108E-8 0.0000373108 2.2083E-8 27.7996 0.0329953
6985 5.21607E+7 28388.7 5.21607E+7 28388.7 0.0000444905 2.42145E-8 0.0000376321 2.22701E-8 27.7901 0.0329927
6986 5.2123E+7 28360 5.2123E+7 28360 0.0000448849 2.44221E-8 0.0000379637 2.24604E-8 27.7805 0.0329879
6987 5.20326E+7 28316.6 5.20326E+7 28316.6 0.0000452369 2.46187E-8 0.000038271 2.26437E-8 27.771 0.0329913
6988 5.1949E+7 28275.6 5.1949E+7 28275.6 0.0000455977 2.4819E-8 0.0000385714 2.28266E-8 27.7614 0.0329939
6989 5.19021E+7 28244.2 5.19021E+7 28244.2 0.0000459932 2.50291E-8 0.0000389162 2.30233E-8 27.7519 0.0329905
6990 5.18365E+7 28208.6 5.18365E+7 28208.6 0.0000463761 2.52375E-8 0.0000392331 2.32126E-8 27.7423 0.0329905
6991 5.16827E+7 28147.7 5.16827E+7 28147.7 0.0000466819 2.54245E-8 0.000039489 2.33839E-8 27.7328 0.0330039
6992 5.16855E+7 28130.6 5.16855E+7 28130.6 0.0000471322 2.56528E-8 0.0000398953 2.36012E-8 27.7232 0.032993
6993 5.1564E+7 28078.5 5.1564E+7 28078.5 0.0000474728 2.58511E-8 0.0000401687 2.37792E-8 27.7137 0.0330013
6994 5.15699E+7 28063.3 5.15699E+7 28063.3 0.0000479335 2.60848E-8 0.0000405649 2.39962E-8 27.7041 0.0329904
6995 5.14928E+7 28023.3 5.14928E+7 28023.3 0.0000483209 2.62975E-8 0.0000408987 2.41933E-8 27.6946 0.0329916
6996 5.14466E+7 27992.4 5.14466E+7 27992.4 0.0000487409 2.65207E-8 0.0000412535 2.4399E-8 27.685 0.0329882
6997 5.13717E+7 27954.5 5.13717E+7 27954.5 0.000049137 2.67389E-8 0.0000415906 2.46002E-8 27.6755 0.0329899
6998 5.12488E+7 27901.8 5.12488E+7 27901.8 0.0000494898 2.69445E-8 0.0000419239 2.47995E-8 27.6659 0.0329982
6999 5.11959E+7 27870.4 5.11959E+7 27870.4 0.0000499128 2.71723E-8 0.0000422513 2.49999E-8 27.6564 0.0329967
7000 5.11555E+7 27841.2 5.11555E+7 27841.2 0.0000503518 2.74042E-8 0.0000426433 2.52194E-8 27.6469 0.0329925
7001 5.1082E+7 27802.1 5.1082E+7 27802.1 0.0000507621 2.76284E-8 0.0000429632 2.5418E-8 27.6373 0.0329929
7002 5.10249E+7 27768.8 5.10249E+7 27768.8 0.0000511914 2.78598E-8 0.0000433498 2.56374E-8 27.6278 0.0329916
7003 5.098E+7 27738.5 5.098E+7 27738.5 0.0000516375 2.80967E-8 0.0000437434 2.58599E-8 27.6182 0.0329882
7004 5.08721E+7 27691.1 5.08721E+7 27691.1 0.0000520224 2.83177E-8 0.0000440611 2.60609E-8 27.6087 0.0329949
7005 5.08289E+7 27661.4 5.08289E+7 27661.4 0.0000524769 2.85587E-8 0.0000444595 2.62867E-8 27.5991 0.0329912
7006 5.07398E+7 27619.5 5.07398E+7 27619.5 0.0000528876 2.87891E-8 0.0000447982 2.6496E-8 27.5896 0.0329952
7007 5.06641E+7 27580.7 5.06641E+7 27580.7 0.0000533151 2.90242E-8 0.0000451627 2.67131E-8 27.58 0.0329966
7008 5.06457E+7 27557.1 5.06457E+7 27557.1 0.0000538071 2.92777E-8 0.0000455763 2.69455E-8 27.5705 0.0329885
7009 5.05391E+7 27510.7 5.05391E+7 27510.7 0.0000542086 2.95086E-8 0.0000459344 2.71634E-8 27.5609 0.0329954
7010 5.04814E+7 27475.9 5.04814E+7 27475.9 0.0000546666 2.97543E-8 0.0000463237 2.73898E-8 27.5514 0.0329934
7011 5.04177E+7 27441 5.04177E+7 27441 0.0000551214 3.00015E-8 0.0000467001 2.76148E-8 27.5418 0.0329932
7012 5.0343E+7 27402.2 5.0343E+7 27402.2 0.0000555677 3.02465E-8 0.0000470776 2.78399E-8 27.5323 0.0329944
7013 5.03098E+7 27375 5.03098E+7 27375 0.0000560642 3.05065E-8 0.0000474824 2.80748E-8 27.5227 0.0329888
7014 5.01607E+7 27316.5 5.01607E+7 27316.5 0.0000564338 3.07331E-8 0.0000478299 2.82935E-8 27.5132 0.0330025
7015 5.01623E+7 27299.3 5.01623E+7 27299.3 0.0000569772 3.10086E-8 0.0000483037 2.85509E-8 27.5036 0.0329916
7016 5.00614E+7 27254.4 5.00614E+7 27254.4 0.0000574083 3.12547E-8 0.0000486802 2.87809E-8 27.4941 0.0329977
7017 4.99835E+7 27215 4.99835E+7 27215 0.0000578687 3.15088E-8 0.0000490575 2.90109E-8 27.4845 0.0329995
7018 4.99726E+7 27194 4.99726E+7 27194 0.0000584112 3.17865E-8 0.0000495235 2.92686E-8 27.475 0.0329904
7019 4.98468E+7 27141.7 4.98468E+7 27141.7 0.0000588232 3.20299E-8 0.0000498702 2.9492E-8 27.4654 0.0330002
7020 4.97964E+7 27109.7 4.97964E+7 27109.7 0.0000593275 3.22991E-8 0.0000503071 2.97423E-8 27.4559 0.0329974
7021 4.97645E+7 27084 4.97645E+7 27084 0.0000598583 3.2578E-8 0.0000507448 2.9996E-8 27.4463 0.0329924
7022 4.96734E+7 27041.3 4.96734E+7 27041.3 0.0000603217 3.28386E-8 0.0000511433 3.02371E-8 27.4368 0.0329966
7023 4.9642E+7 27014.3 4.9642E+7 27014.3 0.0000608619 3.31205E-8 0.0000516225 3.0503E-8 27.4273 0.0329905
7024 4.95566E+7 26973.5 4.95566E+7 26973.5 0.0000613401 3.33878E-8 0.0000520119 3.07445E-8 27.4177 0.032994
7025 4.95092E+7 26942.7 4.95092E+7 26942.7 0.0000618694 3.36695E-8 0.000052478 3.1009E-8 27.4082 0.0329909
7026 4.94103E+7 26897.7 4.94103E+7 26897.7 0.0000623383 3.39359E-8 0.0000528864 3.12575E-8 27.3986 0.0329963
7027 4.93487E+7 26862.5 4.93487E+7 26862.5 0.0000628579 3.42167E-8 0.000053333 3.15176E-8 27.3891 0.0329953
7028 4.93182E+7 26837.2 4.93182E+7 26837.2 0.0000634214 3.45121E-8 0.0000537948 3.1785E-8 27.3795 0.0329899
7029 4.91999E+7 26786.5 4.91999E+7 26786.5 0.0000638766 3.47776E-8 0.0000542022 3.20362E-8 27.37 0.0329984
7030 4.91717E+7 26762.3 4.91717E+7 26762.3 0.000064453 3.50798E-8 0.0000546585 3.23044E-8 27.3604 0.0329929
7031 4.90922E+7 26722.8 4.90922E+7 26722.8 0.000064966 3.5364E-8 0.0000551338 3.25783E-8 27.3509 0.0329952
7032 4.90025E+7 26680.5 4.90025E+7 26680.5 0.0000654691 3.56466E-8 0.0000555634 3.28395E-8 27.3413 0.0329993
7033 4.89408E+7 26645.5 4.89408E+7 26645.5 0.0000660139 3.59414E-8 0.000056032 3.31127E-8 27.3318 0.0329985
7034 4.8886E+7 26613.2 4.8886E+7 26613.2 0.000066573 3.62424E-8 0.0000565035 3.33894E-8 27.3222 0.0329969
7035 4.88367E+7 26581.4 4.88367E+7 26581.4 0.0000671435 3.65462E-8 0.0000569976 3.36719E-8 27.3127 0.0329938
7036 4.88157E+7 26558.1 4.88157E+7 26558.1 0.0000677587 3.68645E-8 0.0000574956 3.3958E-8 27.3031 0.0329864
7037 4.87022E+7 26509.2 4.87022E+7 26509.2 0.0000682499 3.71498E-8 0.0000579331 3.42272E-8 27.2936 0.0329944
7038 4.86524E+7 26477.7 4.86524E+7 26477.7 0.000068834 3.74615E-8 0.0000584349 3.45162E-8 27.284 0.0329917
7039 4.85786E+7 26440.6 4.85786E+7 26440.6 0.0000693889 3.77678E-8 0.0000589079 3.4799E-8 27.2745 0.0329936
7040 4.8473E+7 26394.2 4.8473E+7 26394.2 0.0000699026 3.80635E-8 0.0000593444 3.50708E-8 27.2649 0.0330005
7041 4.8439E+7 26366.6 4.8439E+7 26366.6 0.0000705234 3.83882E-8 0.0000598665 3.53694E-8 27.2554 0.0329948
7042 4.83923E+7 26336.6 4.83923E+7 26336.6 0.0000711312 3.87125E-8 0.0000603857 3.56689E-8 27.2458 0.032992
7043 4.8311E+7 26296.4 4.8311E+7 26296.4 0.0000716933 3.90243E-8 0.0000608759 3.59598E-8 27.2363 0.0329945
7044 4.82247E+7 26255.1 4.82247E+7 26255.1 0.0000722518 3.93367E-8 0.0000613268 3.62408E-8 27.2267 0.0329981
7045 4.81754E+7 26224.5 4.81754E+7 26224.5 0.0000728702 3.96678E-8 0.000061883 3.65547E-8 27.2172 0.0329957
7046 4.81356E+7 26195.8 4.81356E+7 26195.8 0.0000735085 4.00045E-8 0.000062458 3.68754E-8 27.2076 0.0329913
7047 4.80646E+7 26159 4.80646E+7 26159 0.0000741046 4.03318E-8 0.0000629713 3.71783E-8 27.1981 0.0329925
7048 4.79733E+7 26116.4 4.79733E+7 26116.4 0.0000746734 4.06524E-8 0.0000634336 3.74683E-8 27.1885 0.0329969
7049 4.79455E+7 26091.6 4.79455E+7 26091.6 0.0000753461 4.10034E-8 0.0000640185 3.77958E-8 27.179 0.0329908
7050 4.7847E+7 26046.5 4.7847E+7 26046.5 0.0000759125 4.13251E-8 0.0000644926 3.80901E-8 27.1694 0.0329962
7051 4.782E+7 26022 4.782E+7 26022 0.0000765979 4.16824E-8 0.0000650846 3.84222E-8 27.1599 0.0329899
7052 4.77333E+7 25981.4 4.77333E+7 25981.4 0.0000771919 4.20164E-8 0.0000655699 3.87246E-8 27.1504 0.0329942
7053 4.76504E+7 25941 4.76504E+7 25941 0.0000777976 4.23539E-8 0.0000661137 3.90439E-8 27.1408 0.0329972
7054 4.76224E+7 25915.2 4.76224E+7 25915.2 0.0000784971 4.27172E-8 0.0000667231 3.93839E-8 27.1313 0.0329904
7055 4.75372E+7 25874.2 4.75372E+7 25874.2 0.0000791091 4.30592E-8 0.0000672281 3.96943E-8 27.1217 0.0329939
7056 4.74399E+7 25830.2 4.74399E+7 25830.2 0.0000797045 4.33982E-8 0.0000677339 4.00066E-8 27.1122 0.0329996
7057 4.7393E+7 25801.2 4.7393E+7 25801.2 0.0000803898 4.37656E-8 0.0000683401 4.03526E-8 27.1026 0.0329974
7058 4.73099E+7 25760.5 4.73099E+7 25760.5 0.0000810188 4.41158E-8 0.0000688583 4.06707E-8 27.0931 0.0330003
7059 4.72726E+7 25732.7 4.72726E+7 25732.7 0.0000817316 4.4491E-8 0.0000694572 4.10144E-8 27.0835 0.0329955
7060 4.71937E+7 25694.2 4.71937E+7 25694.2 0.0000823774 4.48502E-8 0.0000700325 4.13538E-8 27.074 0.0329983
7061 4.71346E+7 25660.4 4.71346E+7 25660.4 0.0000830636 4.5221E-8 0.0000706589 4.1708E-8 27.0644 0.0329973
7062 4.70905E+7 25630.9 4.70905E+7 25630.9 0.0000837824 4.56025E-8 0.0000712512 4.2054E-8 27.0549 0.0329937
7063 4.70551E+7 25604.3 4.70551E+7 25604.3 0.0000845225 4.59922E-8 0.0000718619 4.24081E-8 27.0453 0.032989
7064 4.69518E+7 25558.3 4.69518E+7 25558.3 0.0000851462 4.63501E-8 0.0000724176 4.27455E-8 27.0358 0.0329956
7065 4.69024E+7 25527.7 4.69024E+7 25527.7 0.0000858725 4.67387E-8 0.0000730043 4.30942E-8 27.0262 0.0329932
7066 4.68554E+7 25497.3 4.68554E+7 25497.3 0.0000866099 4.71312E-8 0.0000736591 4.34652E-8 27.0167 0.0329901
7067 4.67511E+7 25451.6 4.67511E+7 25451.6 0.0000872459 4.74979E-8 0.000074254 4.38186E-8 27.0071 0.0329973
7068 4.67065E+7 25422.1 4.67065E+7 25422.1 0.0000879988 4.78979E-8 0.0000748751 4.41825E-8 26.9976 0.0329939
7069 4.6608E+7 25378 4.6608E+7 25378 0.0000886557 4.82736E-8 0.0000754332 4.45284E-8 26.988 0.0330001
7070 4.65601E+7 25347.7 4.65601E+7 25347.7 0.0000894146 4.86788E-8 0.0000760706 4.48996E-8 26.9785 0.0329973
7071 4.65003E+7 25314.3 4.65003E+7 25314.3 0.000090156 4.90808E-8 0.0000767307 4.52792E-8 26.9689 0.0329968
7072 4.64296E+7 25277 4.64296E+7 25277 0.0000908824 4.94785E-8 0.0000773284 4.56402E-8 26.9594 0.0329976
7073 4.63593E+7 25240.8 4.63593E+7 25240.8 0.0000916158 4.98818E-8 0.0000779632 4.60156E-8 26.9498 0.0329989
7074 4.62657E+7 25198.6 4.62657E+7 25198.6 0.0000923078 5.0276E-8 0.000078526 4.63711E-8 26.9403 0.0330046
7075 4.62401E+7 25174.4 4.62401E+7 25174.4 0.0000931419 5.07098E-8 0.000079278 4.67834E-8 26.9307 0.0329979
7076 4.62198E+7 25151.8 4.62198E+7 25151.8 0.0000939939 5.11502E-8 0.0000799957 4.71881E-8 26.9212 0.0329904
7077 4.61163E+7 25106.2 4.61163E+7 25106.2 0.0000946836 5.15474E-8 0.0000805678 4.75495E-8 26.9116 0.0329974
7078 4.6072E+7 25078.2 4.6072E+7 25078.2 0.0000955 5.1984E-8 0.0000813219 4.79695E-8 26.9021 0.0329949
7079 4.60095E+7 25044.3 4.60095E+7 25044.3 0.0000962856 5.24118E-8 0.0000819977 4.83668E-8 26.8926 0.0329949
7080 4.60001E+7 25025.1 4.60001E+7 25025.1 0.0000971893 5.2874E-8 0.0000827183 4.87786E-8 26.883 0.0329857
7081 4.59016E+7 24982.5 4.59016E+7 24982.5 0.0000979113 5.32903E-8 0.0000833822 4.91774E-8 26.8735 0.0329929
7082 4.58499E+7 24951.7 4.58499E+7 24951.7 0.0000987401 5.37356E-8 0.0000840599 4.95802E-8 26.8639 0.0329912
7083 4.57799E+7 24917 4.57799E+7 24917 0.0000995353 5.41757E-8 0.0000847529 4.99913E-8 26.8544 0.0329934
7084 4.57239E+7 24884.5 4.57239E+7 24884.5 0.000100367 5.4624E-8 0.0000854937 5.04146E-8 26.8448 0.032992
7085 4.56339E+7 24843.4 4.56339E+7 24843.4 0.00010113 5.50566E-8 0.000086139 5.08122E-8 26.8353 0.0329973
7086 4.56016E+7 24819 4.56016E+7 24819 0.000102028 5.55303E-8 0.000086882 5.12432E-8 26.8257 0.0329927
7087 4.55346E+7 24784.3 4.55346E+7 24784.3 0.000102856 5.59848E-8 0.0000875898 5.16627E-8 26.8162 0.0329939
7088 4.54398E+7 24741.6 4.54398E+7 24741.6 0.000103626 5.64245E-8 0.0000882684 5.20758E-8 26.8066 0.0329999
7089 4.5421E+7 24720.6 4.5421E+7 24720.6 0.000104577 5.69173E-8 0.0000890599 5.25249E-8 26.7971 0.0329927
7090 4.53514E+7 24685.7 4.53514E+7 24685.7 0.000105419 5.73826E-8 0.0000898127 5.29651E-8 26.7875 0.0329947
7091 4.52877E+7 24651.5 4.52877E+7 24651.5 0.000106281 5.78527E-8 0.0000905472 5.33991E-8 26.778 0.032995
7092 4.52244E+7 24618.1 4.52244E+7 24618.1 0.00010715 5.83285E-8 0.0000913237 5.38486E-8 26.7684 0.0329957
7093 4.51603E+7 24584.9 4.51603E+7 24584.9 0.000108025 5.88088E-8 0.0000920447 5.42851E-8 26.7589 0.0329968
7094 4.51126E+7 24555.6 4.51126E+7 24555.6 0.000108946 5.93021E-8 0.0000928619 5.475E-8 26.7493 0.0329946
7095 4.50353E+7 24518.7 4.50353E+7 24518.7 0.000109802 5.97808E-8 0.0000935771 5.5188E-8 26.7398 0.0329981
7096 4.49702E+7 24483.7 4.49702E+7 24483.7 0.000110697 6.02687E-8 0.0000943185 5.56319E-8 26.7302 0.0329983
7097 4.49511E+7 24463.3 4.49511E+7 24463.3 0.00011171 6.07958E-8 0.0000952282 5.61322E-8 26.7207 0.0329916
7098 4.48444E+7 24417.8 4.48444E+7 24417.8 0.000112514 6.1265E-8 0.0000959107 5.6565E-8 26.7111 0.0330002
7099 4.48018E+7 24389.5 4.48018E+7 24389.5 0.000113486 6.17813E-8 0.0000967521 5.70449E-8 26.7016 0.0329967
7100 4.47824E+7 24368.6 4.47824E+7 24368.6 0.000114525 6.23204E-8 0.0000976749 5.75531E-8 26.692 0.0329897
7101 4.47218E+7 24335.5 4.47218E+7 24335.5 0.000115467 6.28328E-8 0.0000984293 5.8012E-8 26.6825 0.0329896
7102 4.46522E+7 24300.7 4.46522E+7 24300.7 0.000116394 6.33453E-8 0.0000992301 5.84885E-8 26.6729 0.0329917
7103 4.45753E+7 24263.6 4.45753E+7 24263.6 0.000117308 6.38552E-8 0.00010002 5.89624E-8 26.6634 0.0329949
7104 4.45147E+7 24230.9 4.45147E+7 24230.9 0.000118273 6.43809E-8 0.000100864 5.9454E-8 26.6538 0.0329951
7105 4.44359E+7 24193.4 4.44359E+7 24193.4 0.000119196 6.48981E-8 0.000101638 5.99277E-8 26.6443 0.0329988
7106 4.43873E+7 24164.6 4.43873E+7 24164.6 0.000120208 6.54424E-8 0.000102509 6.04334E-8 26.6348 0.0329972
7107 4.43051E+7 24126.2 4.43051E+7 24126.2 0.000121137 6.59656E-8 0.00010333 6.09249E-8 26.6252 0.0330015
7108 4.42711E+7 24099.6 4.42711E+7 24099.6 0.000122205 6.65253E-8 0.000104188 6.14255E-8 26.6156 0.032996
7109 4.42157E+7 24068.8 4.42157E+7 24068.8 0.000123223 6.70773E-8 0.000105097 6.19478E-8 26.6061 0.0329955
7110 4.41955E+7 24047.2 4.41955E+7 24047.2 0.000124349 6.76601E-8 0.000106091 6.24963E-8 26.5966 0.0329883
7111 4.40881E+7 24002.9 4.40881E+7 24002.9 0.000125236 6.81832E-8 0.000106877 6.29876E-8 26.587 0.032998
7112 4.40676E+7 23980.3 4.40676E+7 23980.3 0.000126379 6.87726E-8 0.0001078 6.35167E-8 26.5775 0.0329902
7113 4.39705E+7 23937.3 4.39705E+7 23937.3 0.00012731 6.93078E-8 0.000108583 6.40076E-8 26.5679 0.0329969
7114 4.39192E+7 23907.7 4.39192E+7 23907.7 0.000128382 6.98864E-8 0.000109539 6.4554E-8 26.5584 0.0329958
7115 4.3859E+7 23875.1 4.3859E+7 23875.1 0.000129436 7.0461E-8 0.00011046 6.50915E-8 26.5488 0.0329959
7116 4.37884E+7 23839.9 4.37884E+7 23839.9 0.000130467 7.10315E-8 0.000111312 6.56106E-8 26.5393 0.0329981
7117 4.37268E+7 23807.3 4.37268E+7 23807.3 0.000131533 7.16148E-8 0.000112218 6.61479E-8 26.5297 0.0329988
7118 4.36863E+7 23780.1 4.36863E+7 23780.1 0.000132672 7.22195E-8 0.000113211 6.67129E-8 26.5202 0.0329952
7119 4.36276E+7 23748.5 4.36276E+7 23748.5 0.000133765 7.28152E-8 0.000114194 6.72783E-8 26.5106 0.0329954
7120 4.35729E+7 23717.3 4.35729E+7 23717.3 0.000134879 7.34176E-8 0.000115139 6.78315E-8 26.5011 0.0329945
7121 4.35092E+7 23684.5 4.35092E+7 23684.5 0.000135975 7.40197E-8 0.00011611 6.83999E-8 26.4915 0.0329958
7122 4.3442E+7 23649.9 4.3442E+7 23649.9 0.000137067 7.46208E-8 0.000117045 6.89548E-8 26.482 0.0329972
7123 4.33814E+7 23617 4.33814E+7 23617 0.000138189 7.52317E-8 0.000117977 6.95129E-8 26.4724 0.0329972
7124 4.33012E+7 23580.1 4.33012E+7 23580.1 0.000139257 7.58349E-8 0.000118887 7.00692E-8 26.4629 0.033002
7125 4.32544E+7 23551 4.32544E+7 23551 0.00014044 7.64676E-8 0.000119903 7.06553E-8 26.4533 0.0329994
7126 4.32111E+7 23523.4 4.32111E+7 23523.4 0.000141646 7.71106E-8 0.00012094 7.12526E-8 26.4438 0.0329966
7127 4.31613E+7 23494 4.31613E+7 23494 0.00014284 7.77532E-8 0.000121997 7.1857E-8 26.4342 0.032995
7128 4.30804E+7 23455.8 4.30804E+7 23455.8 0.00014394 7.83715E-8 0.000122951 7.24326E-8 26.4247 0.0329991
7129 4.3038E+7 23429 4.3038E+7 23429 0.000145178 7.90333E-8 0.000124003 7.30423E-8 26.4151 0.0329965
7130 4.29653E+7 23392.9 4.29653E+7 23392.9 0.000146324 7.96686E-8 0.000125019 7.36408E-8 26.4056 0.0329989
7131 4.29641E+7 23376.9 4.29641E+7 23376.9 0.000147721 8.03766E-8 0.000126226 7.43E-8 26.3961 0.0329881
7132 4.28476E+7 23329 4.28476E+7 23329 0.000148736 8.09827E-8 0.000127097 7.48602E-8 26.3865 0.0329991
7133 4.2799E+7 23300.2 4.2799E+7 23300.2 0.000149992 8.16585E-8 0.000128109 7.54673E-8 26.377 0.0329974
7134 4.27576E+7 23273 4.27576E+7 23273 0.000151285 8.23458E-8 0.000129299 7.61273E-8 26.3674 0.0329941
7135 4.2718E+7 23247.1 4.2718E+7 23247.1 0.000152596 8.30437E-8 0.000130391 7.67644E-8 26.3578 0.032991
7136 4.26491E+7 23215.8 4.26491E+7 23215.8 0.000153811 8.37272E-8 0.000131444 7.74E-8 26.3483 0.0329954
7137 4.25943E+7 23187.3 4.25943E+7 23187.3 0.000155088 8.44271E-8 0.000132524 7.80443E-8 26.3388 0.0329963
7138 4.22312E+7 23503.4 4.22312E+7 23503.4 0.000155232 8.6419E-8 0.000132646 7.98515E-8 26.3293 0.0333654
7139 3.76919E+7 29126.2 3.76919E+7 29126.2 0.000139792 1.0831E-7 0.000119423 1.00104E-7 26.3203 0.0393387
7140 3.52526E+7 31693.1 3.52526E+7 31693.1 0.000132127 1.18659E-7 0.000112921 1.09728E-7 26.3098 0.0423922
7141 3.96297E+7 26574.8 3.96297E+7 26574.8 0.000149978 1.00361E-7 0.000128208 9.27553E-8 26.3001 0.0366026
7142 4.22479E+7 23085.3 4.22479E+7 23085.3 0.000161349 8.81626E-8 0.000137949 8.15078E-8 26.291 0.0330581
7143 4.23202E+7 23030.1 4.23202E+7 23030.1 0.000163174 8.87984E-8 0.000139447 8.20892E-8 26.2815 0.0329906
7144 4.22609E+7 23000.7 4.22609E+7 23000.7 0.000164509 8.95361E-8 0.000140656 8.27903E-8 26.2719 0.0329927
7145 4.21997E+7 22969.6 4.21997E+7 22969.6 0.000165847 9.02733E-8 0.000141824 8.3479E-8 26.2624 0.0329943
7146 4.21752E+7 22950.3 4.21752E+7 22950.3 0.000167341 9.10626E-8 0.00014301 8.41816E-8 26.2528 0.03299
7147 4.2066E+7 22906.1 4.2066E+7 22906.1 0.000168508 9.17585E-8 0.000144116 8.48569E-8 26.2433 0.0330009
7148 4.20222E+7 22880.9 4.20222E+7 22880.9 0.000169948 9.25371E-8 0.000145381 8.55875E-8 26.2337 0.033
7149 4.20029E+7 22861.7 4.20029E+7 22861.7 0.000171499 9.33467E-8 0.000146646 8.63179E-8 26.2242 0.0329938
7150 4.19364E+7 22830.2 4.19364E+7 22830.2 0.00017287 9.41118E-8 0.000147898 8.70496E-8 26.2146 0.0329971
7151 4.1865E+7 22798.1 4.1865E+7 22798.1 0.000174232 9.48815E-8 0.00014902 8.77485E-8 26.2051 0.033002
7152 4.18248E+7 22773.1 4.18248E+7 22773.1 0.000175734 9.56867E-8 0.000150328 8.85003E-8 26.1955 0.0329998
7153 4.17858E+7 22749.6 4.17858E+7 22749.6 0.000177256 9.65054E-8 0.000151641 8.92612E-8 26.186 0.0329981
7154 4.17428E+7 22723.4 4.17428E+7 22723.4 0.000178772 9.73189E-8 0.00015294 9.00151E-8 26.1764 0.0329961
7155 4.17023E+7 22698.6 4.17023E+7 22698.6 0.000180312 9.81455E-8 0.000154271 9.07822E-8 26.1669 0.0329941
7156 4.1625E+7 22664.2 4.1625E+7 22664.2 0.000181705 9.89372E-8 0.000155512 9.1529E-8 26.1573 0.0329997
7157 4.1573E+7 22636.7 4.1573E+7 22636.7 0.000183218 9.97646E-8 0.000156743 9.22755E-8 26.1478 0.0330003
7158 4.1549E+7 22617.3 4.1549E+7 22617.3 0.000184869 1.00635E-7 0.000158222 9.30999E-8 26.1382 0.0329957
7159 4.15028E+7 22590.6 4.15028E+7 22590.6 0.000186434 1.0148E-7 0.000159535 9.38749E-8 26.1287 0.0329945
7160 4.14837E+7 22572.6 4.14837E+7 22572.6 0.000188138 1.02374E-7 0.000161016 9.47081E-8 26.1191 0.032989
7161 4.13909E+7 22533.2 4.13909E+7 22533.2 0.000189517 1.03175E-7 0.000162142 9.54331E-8 26.1096 0.0329971
7162 4.13101E+7 22497.8 4.13101E+7 22497.8 0.000190961 1.04001E-7 0.000163494 9.62313E-8 26.1001 0.0330034
7163 4.12931E+7 22479.8 4.12931E+7 22479.8 0.000192714 1.04915E-7 0.000165025 9.70841E-8 26.0905 0.032997
7164 4.12098E+7 22443.7 4.12098E+7 22443.7 0.000194172 1.05751E-7 0.000166224 9.78451E-8 26.081 0.0330038
7165 4.11681E+7 22417.9 4.11681E+7 22417.9 0.000195835 1.06643E-7 0.000167664 9.86756E-8 26.0714 0.0330015
7166 4.1118E+7 22391.7 4.1118E+7 22391.7 0.000197473 1.0754E-7 0.000169113 9.952E-8 26.0619 0.0330023
7167 4.10997E+7 22373.5 4.10997E+7 22373.5 0.000199279 1.08484E-7 0.000170702 1.00404E-7 26.0523 0.0329962
7168 4.10445E+7 22345.3 4.10445E+7 22345.3 0.00020092 1.09386E-7 0.000171985 1.01204E-7 26.0428 0.0329976
7169 4.09704E+7 22311.6 4.09704E+7 22311.6 0.000202483 1.10269E-7 0.000173419 1.02049E-7 26.0332 0.0330025
7170 4.09562E+7 22294.2 4.09562E+7 22294.2 0.000204354 1.1124E-7 0.000175035 1.0295E-7 26.0237 0.0329954
7171 4.08996E+7 22265.4 4.08996E+7 22265.4 0.00020603 1.12163E-7 0.000176523 1.03821E-7 26.0141 0.0329969
7172 4.08557E+7 22240.7 4.08557E+7 22240.7 0.000207783 1.13112E-7 0.00017795 1.04677E-7 26.0046 0.0329962
7173 4.08152E+7 22215.2 4.08152E+7 22215.2 0.000209568 1.14067E-7 0.000179581 1.05591E-7 25.995 0.0329937
7174 4.07399E+7 22181.7 4.07399E+7 22181.7 0.000211188 1.14987E-7 0.000180973 1.06444E-7 25.9855 0.0329993
7175 4.07156E+7 22161.4 4.07156E+7 22161.4 0.000213088 1.15985E-7 0.000182536 1.0735E-7 25.9759 0.032994
7176 4.06445E+7 22128.7 4.06445E+7 22128.7 0.000214757 1.16925E-7 0.000183955 1.08215E-7 25.9664 0.0329984
7177 4.05952E+7 22102.5 4.05952E+7 22102.5 0.000216555 1.17907E-7 0.000185501 1.09127E-7 25.9568 0.0329989
7178 4.0542E+7 22074 4.0542E+7 22074 0.000218345 1.18885E-7 0.000187061 1.10039E-7 25.9473 0.0329993
7179 4.05008E+7 22050 4.05008E+7 22050 0.000220216 1.19895E-7 0.000188764 1.11003E-7 25.9377 0.0329981
7180 4.04034E+7 22010.1 4.04034E+7 22010.1 0.000221793 1.20825E-7 0.000190041 1.11844E-7 25.9282 0.0330079
7181 4.04164E+7 22000.5 4.04164E+7 22000.5 0.000223995 1.21932E-7 0.000191962 1.12877E-7 25.9186 0.0329955
7182 4.03449E+7 21967.9 4.03449E+7 21967.9 0.000225742 1.22919E-7 0.000193527 1.13811E-7 25.9091 0.0330002
7183 4.03044E+7 21943.4 4.03044E+7 21943.4 0.000227679 1.2396E-7 0.000195152 1.14765E-7 25.8995 0.0329984
7184 4.02303E+7 21909.4 4.02303E+7 21909.4 0.000229441 1.24956E-7 0.00019664 1.15679E-7 25.89 0.0330032
7185 4.02252E+7 21895.7 4.02252E+7 21895.7 0.000231612 1.26074E-7 0.000198564 1.16734E-7 25.8805 0.0329949
7186 4.01528E+7 21862.5 4.01528E+7 21862.5 0.000233415 1.27092E-7 0.000200227 1.17711E-7 25.8709 0.0329996
7187 4.00956E+7 21834.6 4.00956E+7 21834.6 0.000235319 1.28148E-7 0.000201725 1.18649E-7 25.8613 0.033002
7188 4.00861E+7 21819.7 4.00861E+7 21819.7 0.000237519 1.29289E-7 0.000203647 1.19714E-7 25.8518 0.0329947
7189 3.99998E+7 21782.9 3.99998E+7 21782.9 0.000239282 1.30309E-7 0.000205247 1.20686E-7 25.8423 0.0330024
7190 3.99993E+7 21770.3 3.99993E+7 21770.3 0.000241574 1.31483E-7 0.000207173 1.21762E-7 25.8327 0.0329931
7191 3.98961E+7 21729.9 3.98961E+7 21729.9 0.000243262 1.32497E-7 0.000208632 1.22704E-7 25.8232 0.033005
7192 3.98733E+7 21710.9 3.98733E+7 21710.9 0.000245455 1.33652E-7 0.00021047 1.2376E-7 25.8136 0.033
7193 3.97996E+7 21678.1 3.97996E+7 21678.1 0.000247354 1.34731E-7 0.000212172 1.24783E-7 25.8041 0.0330056
7194 3.98022E+7 21666 3.98022E+7 21666 0.000249742 1.35947E-7 0.000214252 1.25917E-7 25.7945 0.0329953
7195 3.97658E+7 21644.8 3.97658E+7 21644.8 0.000251908 1.37118E-7 0.000216066 1.26988E-7 25.785 0.0329943
7196 3.96757E+7 21607.6 3.96757E+7 21607.6 0.000253749 1.38195E-7 0.000217611 1.27978E-7 25.7754 0.0330034
7197 3.96205E+7 21579.7 3.96205E+7 21579.7 0.000255826 1.3934E-7 0.000219494 1.29067E-7 25.7659 0.0330049
7198 3.96146E+7 21566.1 3.96146E+7 21566.1 0.000258241 1.40588E-7 0.000221626 1.30241E-7 25.7563 0.032997
7199 3.95539E+7 21536.6 3.95539E+7 21536.6 0.00026032 1.41743E-7 0.000223209 1.31252E-7 25.7468 0.0329997
7200 3.94954E+7 21508.3 3.94954E+7 21508.3 0.00026243 1.42915E-7 0.00022513 1.32369E-7 25.7372 0.0330025
7201 3.94914E+7 21494.2 3.94914E+7 21494.2 0.00026492 1.44191E-7 0.00022724 1.33544E-7 25.7277 0.0329933
7202 3.94118E+7 21460 3.94118E+7 21460 0.000266923 1.45343E-7 0.000229055 1.34639E-7 25.7181 0.0330003
7203 3.93817E+7 21439.2 3.93817E+7 21439.2 0.000269279 1.46596E-7 0.000231095 1.35806E-7 25.7086 0.0329969
7204 3.93123E+7 21408.5 3.93123E+7 21408.5 0.000271381 1.47789E-7 0.000232896 1.3691E-7 25.699 0.0330024
7205 3.9284E+7 21388.5 3.9284E+7 21388.5 0.000273788 1.49069E-7 0.000234977 1.38099E-7 25.6895 0.0329989
7206 3.92408E+7 21364.1 3.92408E+7 21364.1 0.000276113 1.50327E-7 0.000237131 1.39311E-7 25.6799 0.0329981
7207 3.91547E+7 21328 3.91547E+7 21328 0.000278149 1.51513E-7 0.000238743 1.4037E-7 25.6704 0.0330065
7208 3.91323E+7 21308.9 3.91323E+7 21308.9 0.000280657 1.5283E-7 0.000240931 1.416E-7 25.6608 0.0330012
7209 3.91122E+7 21292.3 3.91122E+7 21292.3 0.000283203 1.54175E-7 0.000243249 1.42885E-7 25.6513 0.0329967
7210 3.90682E+7 21267.4 3.90682E+7 21267.4 0.000285599 1.55473E-7 0.00024515 1.44044E-7 25.6417 0.0329961
7211 3.90181E+7 21241.6 3.90181E+7 21241.6 0.000287968 1.56773E-7 0.000247353 1.45297E-7 25.6322 0.0329972
7212 3.89533E+7 21211.1 3.89533E+7 21211.1 0.000290248 1.5805E-7 0.000249248 1.46461E-7 25.6226 0.0330009
7213 3.88843E+7 21179.9 3.88843E+7 21179.9 0.000292511 1.5933E-7 0.000251204 1.47651E-7 25.6131 0.0330059
7214 3.89185E+7 21175.9 3.89185E+7 21175.9 0.000295581 1.60831E-7 0.000253862 1.4905E-7 25.6035 0.0329883
7215 3.88148E+7 21136.1 3.88148E+7 21136.1 0.00029762 1.62068E-7 0.000255557 1.50179E-7 25.594 0.0330013
7216 3.87701E+7 21111.5 3.87701E+7 21111.5 0.00030013 1.63432E-7 0.00025784 1.51483E-7 25.5845 0.0330011
7217 3.87109E+7 21082.8 3.87109E+7 21082.8 0.000302548 1.64777E-7 0.000259897 1.52721E-7 25.5749 0.0330038
7218 3.86993E+7 21067.7 3.86993E+7 21067.7 0.000305359 1.66238E-7 0.000262427 1.54108E-7 25.5654 0.0329969
7219 3.86401E+7 21039.4 3.86401E+7 21039.4 0.000307816 1.67607E-7 0.000264488 1.55364E-7 25.5558 0.033
7220 3.85715E+7 21008.3 3.85715E+7 21008.3 0.000310218 1.68966E-7 0.000266507 1.56609E-7 25.5463 0.0330049
7221 3.8529E+7 20984 3.8529E+7 20984 0.000312848 1.70389E-7 0.000268895 1.57967E-7 25.5367 0.033004
7222 3.85201E+7 20969.6 3.85201E+7 20969.6 0.000315777 1.71905E-7 0.000271309 1.59343E-7 25.5272 0.0329965
7223 3.84856E+7 20948 3.84856E+7 20948 0.00031852 1.73375E-7 0.000273715 1.60718E-7 25.5176 0.0329943
7224 3.84011E+7 20911.6 3.84011E+7 20911.6 0.000320871 1.74736E-7 0.00027578 1.61994E-7 25.5081 0.0330019
7225 3.83855E+7 20895.8 3.83855E+7 20895.8 0.000323817 1.76278E-7 0.0002783 1.63418E-7 25.4985 0.0329961
7226 3.83002E+7 20860.2 3.83002E+7 20860.2 0.000326199 1.77667E-7 0.000280311 1.64698E-7 25.489 0.0330047
7227 3.82939E+7 20846.9 3.82939E+7 20846.9 0.000329274 1.79256E-7 0.000283159 1.66231E-7 25.4794 0.0329968
7228 3.82471E+7 20821.4 3.82471E+7 20821.4 0.000332028 1.80756E-7 0.000285467 1.67602E-7 25.4699 0.0329968
7229 3.81889E+7 20793 3.81889E+7 20793 0.000334701 1.8224E-7 0.000287679 1.68952E-7 25.4603 0.0329994
7230 3.81528E+7 20771.4 3.81528E+7 20771.4 0.00033759 1.83796E-7 0.00029018 1.70402E-7 25.4508 0.0329979
7231 3.81428E+7 20755.9 3.81428E+7 20755.9 0.000340744 1.85422E-7 0.00029296 1.7193E-7 25.4412 0.0329899
7232 3.80573E+7 20720.7 3.80573E+7 20720.7 0.000343239 1.86882E-7 0.000295145 1.73296E-7 25.4317 0.0329989
7233 3.80048E+7 20694.1 3.80048E+7 20694.1 0.000346057 1.88434E-7 0.000297525 1.74721E-7 25.4221 0.0330005
7234 3.79784E+7 20674.5 3.79784E+7 20674.5 0.000349133 1.90062E-7 0.000300233 1.76253E-7 25.4126 0.0329964
7235 3.79233E+7 20647.6 3.79233E+7 20647.6 0.00035197 1.91635E-7 0.000302727 1.77726E-7 25.403 0.0329988
7236 3.78727E+7 20621.7 3.78727E+7 20621.7 0.000354874 1.93232E-7 0.000305239 1.7921E-7 25.3935 0.0330001
7237 3.78377E+7 20600 3.78377E+7 20600 0.000357947 1.9488E-7 0.000307943 1.80757E-7 25.3839 0.032998
7238 3.77896E+7 20574.3 3.77896E+7 20574.3 0.00036092 1.96504E-7 0.000310461 1.82248E-7 25.3744 0.0329985
7239 3.77493E+7 20550.8 3.77493E+7 20550.8 0.000363995 1.98162E-7 0.000313012 1.8376E-7 25.3648 0.0329971
7240 3.77113E+7 20528.5 3.77113E+7 20528.5 0.000367119 1.99848E-7 0.000315806 1.85355E-7 25.3553 0.0329959
7241 3.76673E+7 20504.3 3.76673E+7 20504.3 0.000370208 2.01527E-7 0.000318482 1.86918E-7 25.3458 0.0329957
7242 3.76051E+7 20474.5 3.76051E+7 20474.5 0.000373143 2.03165E-7 0.00032103 1.88446E-7 25.3362 0.032999
7243 3.75443E+7 20446.2 3.75443E+7 20446.2 0.000376114 2.0483E-7 0.000323496 1.89962E-7 25.3267 0.0330028
7244 3.75057E+7 20424.1 3.75057E+7 20424.1 0.00037933 2.06571E-7 0.000326556 1.91662E-7 25.3171 0.033002
7245 3.74855E+7 20406.1 3.74855E+7 20406.1 0.000382762 2.08368E-7 0.000329508 1.93329E-7 25.3076 0.0329962
7246 3.74125E+7 20374.1 3.74125E+7 20374.1 0.000385684 2.10038E-7 0.000331925 1.94852E-7 25.298 0.0330025
7247 3.73905E+7 20355.6 3.73905E+7 20355.6 0.000389155 2.11861E-7 0.000334836 1.9652E-7 25.2885 0.0329972
7248 3.73269E+7 20326.9 3.73269E+7 20326.9 0.000392221 2.13593E-7 0.000337446 1.9812E-7 25.2789 0.0330021
7249 3.73157E+7 20311.5 3.73157E+7 20311.5 0.000395863 2.15477E-7 0.000340796 1.99929E-7 25.2694 0.0329945
7250 3.72192E+7 20272.1 3.72192E+7 20272.1 0.000398629 2.17124E-7 0.000343248 2.01476E-7 25.2598 0.0330052
7251 3.71841E+7 20251.2 3.71841E+7 20251.2 0.000402073 2.1898E-7 0.000346016 2.03141E-7 25.2503 0.0330037
7252 3.71414E+7 20227.5 3.71414E+7 20227.5 0.000405465 2.20823E-7 0.000349177 2.04924E-7 25.2407 0.0330034
7253 3.71189E+7 20209.4 3.71189E+7 20209.4 0.000409108 2.22742E-7 0.000352194 2.06669E-7 25.2312 0.0329986
7254 3.70786E+7 20185.9 3.70786E+7 20185.9 0.000412583 2.24616E-7 0.000355359 2.08458E-7 25.2216 0.0329973
7255 3.70473E+7 20165.2 3.70473E+7 20165.2 0.000416189 2.2654E-7 0.000358479 2.10247E-7 25.2121 0.0329944
7256 3.69814E+7 20135.4 3.69814E+7 20135.4 0.000419437 2.28376E-7 0.000361194 2.11927E-7 25.2025 0.0329993
7257 3.69285E+7 20108.9 3.69285E+7 20108.9 0.000422852 2.30261E-7 0.000364272 2.13716E-7 25.193 0.0330012
7258 3.69021E+7 20089.7 3.69021E+7 20089.7 0.000426604 2.32249E-7 0.000367497 2.15562E-7 25.1834 0.0329973
7259 3.68344E+7 20059.4 3.68344E+7 20059.4 0.000429909 2.34125E-7 0.000370408 2.17319E-7 25.1739 0.0330027
7260 3.67883E+7 20034.9 3.67883E+7 20034.9 0.000433488 2.36081E-7 0.000373304 2.1908E-7 25.1643 0.0330031
7261 3.67327E+7 20007.6 3.67327E+7 20007.6 0.000436987 2.38021E-7 0.000376484 2.20928E-7 25.1548 0.0330055
7262 3.67032E+7 19987.1 3.67032E+7 19987.1 0.000440824 2.40059E-7 0.000379663 2.22784E-7 25.1452 0.033002
7263 3.66557E+7 19962.4 3.66557E+7 19962.4 0.000444479 2.42063E-7 0.000382981 2.24691E-7 25.1357 0.0330029
7264 3.66276E+7 19942.4 3.66276E+7 19942.4 0.000448397 2.4414E-7 0.000386452 2.26651E-7 25.1261 0.032999
7265 3.65506E+7 19909.5 3.65506E+7 19909.5 0.000451748 2.46075E-7 0.000389309 2.28438E-7 25.1166 0.0330065
7266 3.65361E+7 19893.6 3.65361E+7 19893.6 0.000455901 2.48238E-7 0.000392789 2.30417E-7 25.107 0.0329999
7267 3.65203E+7 19877.7 3.65203E+7 19877.7 0.000460078 2.5042E-7 0.000396638 2.32515E-7 25.0975 0.0329938
7268 3.64194E+7 19837.7 3.64194E+7 19837.7 0.000463204 2.52312E-7 0.000399136 2.34214E-7 25.088 0.0330062
7269 3.64103E+7 19823.6 3.64103E+7 19823.6 0.000467536 2.54554E-7 0.000402981 2.3633E-7 25.0784 0.0329986
7270 3.63368E+7 19790.7 3.63368E+7 19790.7 0.000471066 2.56568E-7 0.000405978 2.38186E-7 25.0689 0.0330045
7271 3.63173E+7 19774 3.63173E+7 19774 0.000475327 2.5881E-7 0.0004098 2.40311E-7 25.0593 0.0329995
7272 3.62678E+7 19748.9 3.62678E+7 19748.9 0.000479237 2.60963E-7 0.000413171 2.42311E-7 25.0498 0.033001
7273 3.62476E+7 19731.2 3.62476E+7 19731.2 0.000483564 2.6323E-7 0.000416851 2.44399E-7 25.0402 0.0329954
7274 3.61919E+7 19703.7 3.61919E+7 19703.7 0.000487453 2.65385E-7 0.000420207 2.46399E-7 25.0307 0.0329978
7275 3.61766E+7 19687.7 3.61766E+7 19687.7 0.000491924 2.67715E-7 0.000424157 2.48589E-7 25.0211 0.0329914
7276 3.60874E+7 19651.5 3.60874E+7 19651.5 0.000495417 2.69785E-7 0.000427171 2.50515E-7 25.0116 0.0330017
7277 3.60407E+7 19627.5 3.60407E+7 19627.5 0.000499522 2.7204E-7 0.000430975 2.52685E-7 25.002 0.0330029
7278 3.59525E+7 19591.1 3.59525E+7 19591.1 0.000503084 2.74143E-7 0.0004338 2.54565E-7 24.9925 0.0330127
7279 3.59473E+7 19578.3 3.59473E+7 19578.3 0.000507833 2.7659E-7 0.000438092 2.56896E-7 24.9829 0.0330043
7280 3.59459E+7 19565.3 3.59459E+7 19565.3 0.000512686 2.79058E-7 0.000442097 2.59134E-7 24.9734 0.032994
7281 3.58675E+7 19532.2 3.58675E+7 19532.2 0.000516477 2.8126E-7 0.000445472 2.61212E-7 24.9638 0.0330021
7282 3.58329E+7 19510.7 3.58329E+7 19510.7 0.000520929 2.83645E-7 0.000449478 2.63475E-7 24.9543 0.0329998
7283 3.58126E+7 19493.1 3.58126E+7 19493.1 0.000525627 2.86106E-7 0.000453326 2.657E-7 24.9447 0.0329943
7284 3.57314E+7 19458.7 3.57314E+7 19458.7 0.000529467 2.88343E-7 0.000456845 2.67841E-7 24.9352 0.0330027
7285 3.56976E+7 19438.1 3.56976E+7 19438.1 0.000534045 2.90804E-7 0.000460836 2.70139E-7 24.9256 0.0330008
7286 3.56703E+7 19418.9 3.56703E+7 19418.9 0.000538754 2.93301E-7 0.000464877 2.72448E-7 24.9161 0.032997
7287 3.56214E+7 19393.8 3.56214E+7 19393.8 0.000543177 2.95733E-7 0.000468708 2.74713E-7 24.9065 0.0329984
7288 3.55894E+7 19373.5 3.55894E+7 19373.5 0.000547894 2.98257E-7 0.000472899 2.77095E-7 24.897 0.0329959
7289 3.55282E+7 19344.8 3.55282E+7 19344.8 0.000552197 3.00671E-7 0.00047658 2.79325E-7 24.8874 0.0329999
7290 3.54873E+7 19321.8 3.54873E+7 19321.8 0.000556855 3.03195E-7 0.000480446 2.81626E-7 24.8779 0.0329992
7291 3.54431E+7 19297.9 3.54431E+7 19297.9 0.000561499 3.05727E-7 0.00048473 2.84061E-7 24.8683 0.0329994
7292 3.54075E+7 19276.2 3.54075E+7 19276.2 0.000566318 3.08314E-7 0.000488928 2.86474E-7 24.8588 0.0329974
7293 3.53243E+7 19241.8 3.53243E+7 19241.8 0.000570404 3.10714E-7 0.000492384 2.88685E-7 24.8492 0.0330067
7294 3.53097E+7 19225.7 3.53097E+7 19225.7 0.00057564 3.13433E-7 0.000496858 2.91198E-7 24.8397 0.0329998
7295 3.52647E+7 19202.2 3.52647E+7 19202.2 0.000580424 3.16055E-7 0.000501124 2.93676E-7 24.8301 0.0330006
7296 3.52319E+7 19181.5 3.52319E+7 19181.5 0.00058544 3.1874E-7 0.000505457 2.96168E-7 24.8206 0.0329982
7297 3.51924E+7 19160.2 3.51924E+7 19160.2 0.000590395 3.2144E-7 0.000509671 2.98657E-7 24.8111 0.0329983
7298 3.51424E+7 19135.2 3.51424E+7 19135.2 0.000595216 3.24102E-7 0.000514001 3.0118E-7 24.8015 0.0330002
7299 3.50927E+7 19110.2 3.50927E+7 19110.2 0.000600077 3.26785E-7 0.000518219 3.0368E-7 24.792 0.0330021
7300 3.50605E+7 19090.2 3.50605E+7 19090.2 0.000605276 3.29574E-7 0.000522522 3.06219E-7 24.7824 0.033
7301 3.50089E+7 19065.1 3.50089E+7 19065.1 0.000610187 3.323E-7 0.000527022 3.08825E-7 24.7729 0.0330025
7302 3.49715E+7 19044 3.49715E+7 19044 0.000615381 3.35115E-7 0.000531286 3.11378E-7 24.7633 0.0330019
7303 3.4945E+7 19024.9 3.4945E+7 19024.9 0.000620817 3.37992E-7 0.000536365 3.14167E-7 24.7538 0.0329978
7304 3.48971E+7 19001.5 3.48971E+7 19001.5 0.000625911 3.40813E-7 0.000540596 3.16735E-7 24.7442 0.0330001
7305 3.48509E+7 18977.6 3.48509E+7 18977.6 0.000631078 3.4365E-7 0.000545204 3.19412E-7 24.7347 0.0330012
7306 3.48382E+7 18963.1 3.48382E+7 18963.1 0.000636899 3.46682E-7 0.00055011 3.22196E-7 24.7251 0.0329947
7307 3.4784E+7 18936.8 3.4784E+7 18936.8 0.00064201 3.49522E-7 0.000554503 3.2483E-7 24.7156 0.0329974
7308 3.4725E+7 18909.6 3.4725E+7 18909.6 0.000647073 3.52371E-7 0.000559172 3.27564E-7 24.706 0.0330018
7309 3.46796E+7 18885.9 3.46796E+7 18885.9 0.000652424 3.55305E-7 0.000563836 3.303E-7 24.6965 0.0330026
7310 3.46547E+7 18868.1 3.46547E+7 18868.1 0.000658209 3.58374E-7 0.000568557 3.33075E-7 24.6869 0.0329989
7311 3.45772E+7 18836 3.45772E+7 18836 0.00066304 3.61198E-7 0.000572837 3.3573E-7 24.6774 0.0330078
7312 3.4516E+7 18808 3.4516E+7 18808 0.000668215 3.6412E-7 0.000577721 3.38569E-7 24.6678 0.0330124
7313 3.4503E+7 18793.2 3.4503E+7 18793.2 0.000674376 3.67326E-7 0.000582792 3.41472E-7 24.6583 0.0330057
7314 3.45012E+7 18781.6 3.45012E+7 18781.6 0.000680812 3.70624E-7 0.000588425 3.44564E-7 24.6487 0.0329964
7315 3.44521E+7 18757.9 3.44521E+7 18757.9 0.000686358 3.73702E-7 0.000593307 3.47448E-7 24.6392 0.032999
7316 3.43893E+7 18729 3.43893E+7 18729 0.000691684 3.76707E-7 0.000597882 3.50233E-7 24.6296 0.0330036
7317 3.43483E+7 18706.5 3.43483E+7 18706.5 0.00069749 3.79868E-7 0.000602905 3.53169E-7 24.6201 0.0330035
7318 3.43245E+7 18689.3 3.43245E+7 18689.3 0.000703689 3.83155E-7 0.000608244 3.56222E-7 24.6105 0.0329997
7319 3.42918E+7 18669.5 3.42918E+7 18669.5 0.000709767 3.86425E-7 0.000613518 3.59272E-7 24.601 0.0329981
7320 3.42384E+7 18643.6 3.42384E+7 18643.6 0.00071546 3.8959E-7 0.000618697 3.6229E-7 24.5914 0.0330008
7321 3.41815E+7 18617.8 3.41815E+7 18617.8 0.000721124 3.92783E-7 0.000623425 3.65208E-7 24.5819 0.0330054
7322 3.41498E+7 18597.6 3.41498E+7 18597.6 0.000727371 3.96123E-7 0.000629074 3.68385E-7 24.5723 0.0330028
7323 3.41207E+7 18578.7 3.41207E+7 18578.7 0.000733717 3.99514E-7 0.000634408 3.71499E-7 24.5628 0.0330001
7324 3.40765E+7 18555.2 3.40765E+7 18555.2 0.000739796 4.02838E-7 0.000639801 3.74624E-7 24.5533 0.0330006
7325 3.40162E+7 18527.7 3.40162E+7 18527.7 0.000745577 4.06101E-7 0.000644874 3.7768E-7 24.5437 0.0330054
7326 3.39906E+7 18510 3.39906E+7 18510 0.000752163 4.09604E-7 0.000650831 3.81015E-7 24.5342 0.033002
7327 3.39424E+7 18485.9 3.39424E+7 18485.9 0.000758301 4.12996E-7 0.000655941 3.84118E-7 24.5246 0.0330039
7328 3.39374E+7 18473.2 3.39374E+7 18473.2 0.000765466 4.16672E-7 0.000662052 3.87503E-7 24.5151 0.032995
7329 3.38475E+7 18438 3.38475E+7 18438 0.000770759 4.19867E-7 0.000666785 3.90522E-7 24.5055 0.0330073
7330 3.3825E+7 18420.5 3.3825E+7 18420.5 0.000777634 4.23492E-7 0.000672618 3.9386E-7 24.496 0.0330026
7331 3.37855E+7 18399.2 3.37855E+7 18399.2 0.00078418 4.27061E-7 0.000678443 3.97225E-7 24.4864 0.0330028
7332 3.37587E+7 18380.6 3.37587E+7 18380.6 0.000791072 4.30722E-7 0.000684444 4.00642E-7 24.4769 0.0329993
7333 3.37023E+7 18354.5 3.37023E+7 18354.5 0.00079733 4.34239E-7 0.000690226 4.04024E-7 24.4673 0.0330034
7334 3.36541E+7 18330.2 3.36541E+7 18330.2 0.000803827 4.37822E-7 0.000695625 4.07292E-7 24.4578 0.0330051
7335 3.36346E+7 18314.2 3.36346E+7 18314.2 0.000811068 4.41637E-7 0.000701892 4.10838E-7 24.4482 0.0330003
7336 3.35714E+7 18285.6 3.35714E+7 18285.6 0.000817315 4.45181E-7 0.000707546 4.14208E-7 24.4387 0.0330055
7337 3.35404E+7 18266.2 3.35404E+7 18266.2 0.000824393 4.48975E-7 0.000713302 4.17632E-7 24.4291 0.0330033
7338 3.3478E+7 18238.1 3.3478E+7 18238.1 0.00083075 4.52581E-7 0.000719002 4.21045E-7 24.4196 0.0330086
7339 3.3443E+7 18218.3 3.3443E+7 18218.3 0.000837846 4.56428E-7 0.00072518 4.24632E-7 24.41 0.0330079
7340 3.34493E+7 18208.9 3.34493E+7 18208.9 0.00084604 4.60569E-7 0.000732302 4.28492E-7 24.4005 0.0329963
7341 3.33914E+7 18182.3 3.33914E+7 18182.3 0.00085268 4.6431E-7 0.000737992 4.3196E-7 24.3909 0.0330008
7342 3.33515E+7 18160.3 3.33515E+7 18160.3 0.000859832 4.68196E-7 0.000744357 4.35625E-7 24.3814 0.0330005
7343 3.33068E+7 18136.8 3.33068E+7 18136.8 0.000866919 4.72078E-7 0.000750706 4.39297E-7 24.3718 0.0330013
7344 3.32717E+7 18116.4 3.32717E+7 18116.4 0.000874311 4.76069E-7 0.000757167 4.4303E-7 24.3623 0.0330001
7345 3.32456E+7 18098.3 3.32456E+7 18098.3 0.00088201 4.80159E-7 0.000763752 4.46806E-7 24.3527 0.0329966
7346 3.31645E+7 18065.6 3.31645E+7 18065.6 0.000888298 4.83887E-7 0.000769114 4.50253E-7 24.3432 0.033007
7347 3.31573E+7 18052.2 3.31573E+7 18052.2 0.000896628 4.88168E-7 0.000776533 4.54304E-7 24.3336 0.0329983
7348 3.31145E+7 18030.1 3.31145E+7 18030.1 0.000904062 4.9225E-7 0.000783126 4.58145E-7 24.3241 0.0329995
7349 3.30753E+7 18008.5 3.30753E+7 18008.5 0.000911649 4.96373E-7 0.000789718 4.61986E-7 24.3146 0.0329992
7350 3.3015E+7 17981.8 3.3015E+7 17981.8 0.000918718 5.0039E-7 0.000796058 4.65789E-7 24.305 0.0330048
7351 3.29993E+7 17965.9 3.29993E+7 17965.9 0.000927092 5.04748E-7 0.000803194 4.69813E-7 24.2955 0.0329981
7352 3.29022E+7 17928.9 3.29022E+7 17928.9 0.000933234 5.0854E-7 0.000808355 4.73294E-7 24.2859 0.0330127
7353 3.2912E+7 17920.9 3.2912E+7 17920.9 0.000942463 5.13188E-7 0.000816735 4.77731E-7 24.2764 0.0330004
7354 3.28717E+7 17898.7 3.28717E+7 17898.7 0.000950346 5.17473E-7 0.000823475 4.81697E-7 24.2668 0.0330002
7355 3.28081E+7 17870.7 3.28081E+7 17870.7 0.000957608 5.21622E-7 0.000829859 4.85592E-7 24.2573 0.0330063
7356 3.27924E+7 17855.3 3.27924E+7 17855.3 0.000966322 5.26166E-7 0.000837263 4.89768E-7 24.2477 0.033
7357 3.27397E+7 17830.6 3.27397E+7 17830.6 0.00097403 5.30482E-7 0.000844355 4.93911E-7 24.2382 0.0330037
7358 3.27191E+7 17813.9 3.27191E+7 17813.9 0.000982763 5.35073E-7 0.000851454 4.98043E-7 24.2286 0.0329986
7359 3.26912E+7 17795.5 3.26912E+7 17795.5 0.000991338 5.39644E-7 0.00085905 5.02352E-7 24.2191 0.0329956
7360 3.26102E+7 17762.4 3.26102E+7 17762.4 0.000998372 5.43811E-7 0.000865575 5.06359E-7 24.2095 0.0330059
7361 3.25893E+7 17746.7 3.25893E+7 17746.7 0.0010073 5.48539E-7 0.000873134 5.10705E-7 24.2 0.0330018
7362 3.25467E+7 17723.3 3.25467E+7 17723.3 0.00101564 5.53074E-7 0.000880236 5.1489E-7 24.1904 0.0330016
7363 3.24782E+7 17694.4 3.24782E+7 17694.4 0.00102322 5.57471E-7 0.000887018 5.19041E-7 24.1809 0.0330095
7364 3.24895E+7 17686.9 3.24895E+7 17686.9 0.0010334 5.62577E-7 0.000896233 5.23915E-7 24.1713 0.0329967
7365 3.24436E+7 17663 3.24436E+7 17663 0.00104184 5.6721E-7 0.000903009 5.28067E-7 24.1618 0.0329978
7366 3.24094E+7 17643.1 3.24094E+7 17643.1 0.00105073 5.72008E-7 0.00091096 5.32608E-7 24.1522 0.0329966
7367 3.23738E+7 17622.8 3.23738E+7 17622.8 0.00105965 5.7683E-7 0.000918849 5.3714E-7 24.1427 0.0329957
7368 3.23345E+7 17601.9 3.23345E+7 17601.9 0.00106851 5.81673E-7 0.000927044 5.41804E-7 24.1331 0.0329961
7369 3.2283E+7 17576.5 3.2283E+7 17576.5 0.00107704 5.86403E-7 0.000933672 5.45976E-7 24.1236 0.0329986
7370 3.21977E+7 17542.3 3.21977E+7 17542.3 0.0010845 5.90878E-7 0.000940506 5.50258E-7 24.114 0.0330102
7371 3.21861E+7 17528.8 3.21861E+7 17528.8 0.00109452 5.96091E-7 0.00094905 5.55072E-7 24.1045 0.0330034
7372 3.2157E+7 17510.2 3.2157E+7 17510.2 0.00110401 6.01169E-7 0.000957715 5.59924E-7 24.0949 0.0330008
7373 3.21369E+7 17493.7 3.21369E+7 17493.7 0.00111391 6.06366E-7 0.000966155 5.64722E-7 24.0854 0.0329956
7374 3.20808E+7 17467.3 3.20808E+7 17467.3 0.00112263 6.1126E-7 0.000973862 5.69314E-7 24.0758 0.0329995
7375 3.20143E+7 17438.9 3.20143E+7 17438.9 0.00113105 6.16115E-7 0.000981358 5.73893E-7 24.0663 0.0330068
7376 3.20093E+7 17426.4 3.20093E+7 17426.4 0.00114173 6.21586E-7 0.000990653 5.79002E-7 24.0567 0.0329976
7377 3.1941E+7 17398 3.1941E+7 17398 0.00115022 6.26522E-7 0.000997547 5.83461E-7 24.0472 0.0330059
7378 3.19126E+7 17379 3.19126E+7 17379 0.00116023 6.31848E-7 0.00100652 5.88512E-7 24.0376 0.0330026
7379 3.18822E+7 17360.2 3.18822E+7 17360.2 0.00117024 6.37216E-7 0.0010153 5.93535E-7 24.0281 0.0330005
7380 3.18434E+7 17339 3.18434E+7 17339 0.00118003 6.42548E-7 0.00102404 5.98573E-7 24.0186 0.0330004
7381 3.17973E+7 17315.9 3.17973E+7 17315.9 0.00118963 6.47847E-7 0.00103246 6.0353E-7 24.009 0.0330023
7382 3.176E+7 17294.6 3.176E+7 17294.6 0.00119963 6.53255E-7 0.00104085 6.0848E-7 23.9995 0.0330013
7383 3.16997E+7 17267.8 3.16997E+7 17267.8 0.00120884 6.58502E-7 0.00104897 6.1341E-7 23.9899 0.0330071
7384 3.1696E+7 17256.2 3.1696E+7 17256.2 0.00122029 6.64371E-7 0.00105929 6.18995E-7 23.9804 0.032998
7385 3.1614E+7 17223 3.1614E+7 17223 0.00122882 6.69456E-7 0.00106641 6.23645E-7 23.9708 0.0330089
7386 3.1604E+7 17209.8 3.1604E+7 17209.8 0.00124021 6.75357E-7 0.00107688 6.29317E-7 23.9613 0.0330015
7387 3.15688E+7 17189.4 3.15688E+7 17189.4 0.00125072 6.8103E-7 0.00108559 6.34492E-7 23.9517 0.0330003
7388 3.15386E+7 17170.8 3.15386E+7 17170.8 0.00126151 6.86821E-7 0.00109524 6.39967E-7 23.9422 0.0329982
7389 3.14693E+7 17141 3.14693E+7 17141 0.00127082 6.92212E-7 0.00110347 6.45029E-7 23.9326 0.0330059
7390 3.14531E+7 17126.1 3.14531E+7 17126.1 0.00128235 6.98242E-7 0.00111359 6.50674E-7 23.9231 0.033
7391 3.14156E+7 17105 3.14156E+7 17105 0.0012931 7.04072E-7 0.00112303 6.56142E-7 23.9135 0.0329994
7392 3.13676E+7 17081.9 3.13676E+7 17081.9 0.00130335 7.09774E-7 0.00113205 6.61489E-7 23.9041 0.0330022
7393 3.12939E+7 17050.7 3.12939E+7 17050.7 0.00131132 7.14489E-7 0.00113904 6.659E-7 23.8957 0.0330109
7394 3.12781E+7 17036 3.12781E+7 17036 0.00132045 7.19205E-7 0.00114633 6.70112E-7 23.8882 0.0330049
7395 3.12486E+7 17017.3 3.12486E+7 17017.3 0.00132887 7.23681E-7 0.00115367 6.74292E-7 23.8809 0.0330024
7396 3.11829E+7 16989 3.11829E+7 16989 0.0013358 7.27775E-7 0.0011601 6.78225E-7 23.8736 0.0330097
7397 3.11765E+7 16976.6 3.11765E+7 16976.6 0.00134531 7.32569E-7 0.0011683 6.82683E-7 23.8663 0.033001
7398 3.11271E+7 16952.4 3.11271E+7 16952.4 0.00135302 7.36885E-7 0.00117513 6.86735E-7 23.859 0.0330037
7399 3.10949E+7 16933.3 3.10949E+7 16933.3 0.00136152 7.41445E-7 0.00118265 6.91026E-7 23.8517 0.0330022
7400 3.10323E+7 16905.5 3.10323E+7 16905.5 0.00136873 7.45653E-7 0.00118922 6.95038E-7 23.8444 0.0330083
7401 3.09987E+7 16885.8 3.09987E+7 16885.8 0.00137726 7.50237E-7 0.00119673 6.99339E-7 23.8371 0.033007
7402 3.0977E+7 16869.3 3.0977E+7 16869.3 0.00138638 7.54997E-7 0.00120533 7.03976E-7 23.8298 0.0330024
7403 3.09393E+7 16848.8 3.09393E+7 16848.8 0.00139484 7.59605E-7 0.0012121 7.08095E-7 23.8225 0.0330024
7404 3.09087E+7 16829.6 3.09087E+7 16829.6 0.00140367 7.64295E-7 0.00122024 7.1261E-7 23.8152 0.0329999
7405 3.08433E+7 16802.1 3.08433E+7 16802.1 0.00141095 7.68631E-7 0.0012262 7.16547E-7 23.8079 0.0330078
7406 3.0832E+7 16788.6 3.0832E+7 16788.6 0.00142078 7.73648E-7 0.00123473 7.21218E-7 23.8006 0.0330007
7407 3.07653E+7 16760.5 3.07653E+7 16760.5 0.00142809 7.78006E-7 0.00124107 7.25268E-7 23.7933 0.0330087
7408 3.0732E+7 16741.3 3.0732E+7 16741.3 0.00143699 7.82812E-7 0.0012497 7.30016E-7 23.786 0.0330077
7409 3.07319E+7 16731.3 3.07319E+7 16731.3 0.00144751 7.88072E-7 0.00125847 7.34816E-7 23.7787 0.0329979
7410 3.06466E+7 16698.2 3.06466E+7 16698.2 0.00145407 7.92277E-7 0.00126394 7.38651E-7 23.7714 0.0330111
7411 3.06306E+7 16683.8 3.06306E+7 16683.8 0.00146395 7.97389E-7 0.00127294 7.43547E-7 23.7641 0.0330054
7412 3.05965E+7 16664.3 3.05965E+7 16664.3 0.00147305 8.02296E-7 0.00128109 7.48197E-7 23.7568 0.0330045
7413 3.05376E+7 16638.4 3.05376E+7 16638.4 0.00148098 8.06915E-7 0.00128763 7.52405E-7 23.7495 0.0330106
7414 3.05411E+7 16629.4 3.05411E+7 16629.4 0.001492 8.12389E-7 0.00129719 7.57494E-7 23.7422 0.0329998
7415 3.04903E+7 16606 3.04903E+7 16606 0.00150043 8.17188E-7 0.00130415 7.61865E-7 23.7349 0.033004
7416 3.04692E+7 16589.4 3.04692E+7 16589.4 0.00151038 8.22354E-7 0.00131376 7.66962E-7 23.7276 0.032999
7417 3.04111E+7 16564.4 3.04111E+7 16564.4 0.00151854 8.27127E-7 0.00132042 7.71282E-7 23.7203 0.0330056
7418 3.03677E+7 16542.2 3.03677E+7 16542.2 0.00152748 8.32075E-7 0.00132857 7.7601E-7 23.713 0.0330071
7419 3.0333E+7 16522.6 3.0333E+7 16522.6 0.00153691 8.3717E-7 0.00133719 7.80877E-7 23.7057 0.0330063
7420 3.02993E+7 16503.7 3.02993E+7 16503.7 0.00154645 8.42339E-7 0.00134547 7.85696E-7 23.6984 0.0330058
7421 3.02867E+7 16490.3 3.02867E+7 16490.3 0.00155714 8.4783E-7 0.0013542 7.90648E-7 23.6911 0.0329993
7422 3.02315E+7 16465.1 3.02315E+7 16465.1 0.00156569 8.52736E-7 0.00136219 7.95399E-7 23.6838 0.0330042
7423 3.02084E+7 16449.4 3.02084E+7 16449.4 0.00157595 8.58162E-7 0.00137106 8.00435E-7 23.6765 0.033001
7424 3.01695E+7 16428.2 3.01695E+7 16428.2 0.00158546 8.63333E-7 0.00137976 8.05373E-7 23.6692 0.0330009
7425 3.01181E+7 16404.5 3.01181E+7 16404.5 0.00159434 8.68404E-7 0.00138721 8.1003E-7 23.6619 0.0330054
7426 3.01074E+7 16391.8 3.01074E+7 16391.8 0.00160545 8.74084E-7 0.0013976 8.1554E-7 23.6546 0.0329984
7427 3.00671E+7 16370.4 3.00671E+7 16370.4 0.00161504 8.79339E-7 0.00140638 8.20573E-7 23.6473 0.0329989
7428 3.00242E+7 16349.6 3.00242E+7 16349.6 0.00162457 8.8466E-7 0.00141394 8.25325E-7 23.64 0.0330015
7429 2.99696E+7 16324.4 2.99696E+7 16324.4 0.00163349 8.89766E-7 0.00142152 8.30036E-7 23.6327 0.0330061
7430 2.99282E+7 16303.2 2.99282E+7 16303.2 0.00164318 8.95116E-7 0.00143045 8.35163E-7 23.6254 0.0330074
7431 2.98957E+7 16284.9 2.98957E+7 16284.9 0.00165342 9.00662E-7 0.00143933 8.40325E-7 23.6181 0.0330068
7432 2.98749E+7 16269.4 2.98749E+7 16269.4 0.00166438 9.06404E-7 0.00144918 8.45781E-7 23.6108 0.0330026
7433 2.98163E+7 16243 2.98163E+7 16243 0.00167329 9.11561E-7 0.00145663 8.50503E-7 23.6035 0.0330082
7434 2.97825E+7 16223.9 2.97825E+7 16223.9 0.00168362 9.17155E-7 0.00146592 8.55808E-7 23.5962 0.0330075
7435 2.97663E+7 16210.1 2.97663E+7 16210.1 0.00169504 9.23088E-7 0.00147617 8.61433E-7 23.5889 0.0330025
7436 2.97354E+7 16192.2 2.97354E+7 16192.2 0.00170569 9.28826E-7 0.00148527 8.66736E-7 23.5816 0.0330013
7437 2.9693E+7 16170.4 2.9693E+7 16170.4 0.00171573 9.34371E-7 0.00149424 8.71977E-7 23.5743 0.0330027
7438 2.96385E+7 16145.4 2.96385E+7 16145.4 0.00172513 9.39757E-7 0.0015026 8.7706E-7 23.567 0.0330074
7439 2.96149E+7 16129.3 2.96149E+7 16129.3 0.00173638 9.45703E-7 0.00151236 8.82591E-7 23.5597 0.0330042
7440 2.95767E+7 16108.9 2.95767E+7 16108.9 0.00174685 9.51427E-7 0.00152198 8.88081E-7 23.5524 0.0330046
7441 2.95342E+7 16087.4 2.95342E+7 16087.4 0.00175711 9.57113E-7 0.00153016 8.93167E-7 23.5451 0.0330062
7442 2.9514E+7 16072.3 2.9514E+7 16072.3 0.00176877 9.63223E-7 0.00154126 8.99135E-7 23.5378 0.0330021
7443 2.94523E+7 16045.3 2.94523E+7 16045.3 0.00177801 9.68648E-7 0.00154935 9.04217E-7 23.5305 0.0330088
7444 2.94334E+7 16030.5 2.94334E+7 16030.5 0.00178989 9.74843E-7 0.0015593 9.09895E-7 23.5232 0.0330042
7445 2.94035E+7 16013.2 2.94035E+7 16013.2 0.00180117 9.80926E-7 0.0015694 9.15648E-7 23.5159 0.0330032
7446 2.93589E+7 15989.6 2.93589E+7 15989.6 0.00181162 9.86662E-7 0.00157903 9.21151E-7 23.5086 0.0330039
7447 2.93358E+7 15974.5 2.93358E+7 15974.5 0.00182345 9.92947E-7 0.00158878 9.26846E-7 23.5013 0.0330012
7448 2.92674E+7 15946.6 2.92674E+7 15946.6 0.00183252 9.98472E-7 0.00159689 9.32072E-7 23.494 0.0330109
7449 2.92763E+7 15939.2 2.92763E+7 15939.2 0.00184652 0.00000100532 0.00160923 9.3851E-7 23.4867 0.0329982
7450 2.92202E+7 15913.9 2.92202E+7 15913.9 0.00185646 0.00000101107 0.00161758 9.43788E-7 23.4795 0.0330037
7451 2.91883E+7 15895.5 2.91883E+7 15895.5 0.00186803 0.00000101731 0.00162811 9.49737E-7 23.4722 0.0330027
7452 2.91393E+7 15872.3 2.91393E+7 15872.3 0.00187856 0.00000102327 0.00163773 9.55439E-7 23.4648 0.0330063
7453 2.91375E+7 15862.1 2.91375E+7 15862.1 0.0018922 0.0000010301 0.00164949 9.61762E-7 23.4575 0.0329966
7454 2.90688E+7 15833.3 2.90688E+7 15833.3 0.00190158 0.00000103577 0.0016582 9.67222E-7 23.4502 0.0330057
7455 2.90217E+7 15810.7 2.90217E+7 15810.7 0.0019124 0.00000104186 0.00166699 9.72715E-7 23.443 0.0330088
7456 2.90112E+7 15798.5 2.90112E+7 15798.5 0.0019257 0.00000104868 0.00167889 9.79177E-7 23.4357 0.0330021
7457 2.89805E+7 15780.1 2.89805E+7 15780.1 0.00193776 0.00000105513 0.00168926 9.85156E-7 23.4284 0.0330003
7458 2.89349E+7 15758.2 2.89349E+7 15758.2 0.0019489 0.00000106139 0.00169927 9.91093E-7 23.4211 0.0330034
7459 2.88784E+7 15733 2.88784E+7 15733 0.00195935 0.00000106746 0.00170815 9.96696E-7 23.4137 0.0330092
7460 2.88669E+7 15720.6 2.88669E+7 15720.6 0.00197291 0.00000107443 0.00171999 0.0000010032 23.4065 0.0330027
7461 2.88163E+7 15696.3 2.88163E+7 15696.3 0.00198386 0.00000108063 0.00172932 0.00000100892 23.3992 0.0330062
7462 2.8773E+7 15675.6 2.8773E+7 15675.6 0.00199541 0.00000108711 0.00173955 0.00000101502 23.3919 0.0330092
7463 2.87484E+7 15658.2 2.87484E+7 15658.2 0.00200831 0.00000109386 0.00175136 0.00000102149 23.3846 0.033005
7464 2.87267E+7 15642.9 2.87267E+7 15642.9 0.00202149 0.0000011008 0.0017633 0.0000010281 23.3773 0.0330014
7465 2.86694E+7 15617.9 2.86694E+7 15617.9 0.00203223 0.00000110708 0.00177266 0.00000103397 23.37 0.0330079
7466 2.86387E+7 15599.6 2.86387E+7 15599.6 0.00204493 0.00000111389 0.00178402 0.0000010404 23.3627 0.0330062
7467 2.86043E+7 15580.3 2.86043E+7 15580.3 0.00205744 0.00000112066 0.00179501 0.00000104676 23.3554 0.0330056
7468 2.85754E+7 15563.7 2.85754E+7 15563.7 0.00207042 0.00000112767 0.00180586 0.00000105317 23.3481 0.0330047
7469 2.85376E+7 15543.4 2.85376E+7 15543.4 0.00208282 0.00000113445 0.00181663 0.00000105948 23.3408 0.0330051
7470 2.85149E+7 15527.7 2.85149E+7 15527.7 0.00209643 0.00000114161 0.00182931 0.00000106641 23.3335 0.0330015
7471 2.84701E+7 15505.6 2.84701E+7 15505.6 0.00210846 0.00000114833 0.00184023 0.0000010728 23.3262 0.0330039
7472 2.84281E+7 15484.8 2.84281E+7 15484.8 0.00212078 0.0000011552 0.00184998 0.00000107893 23.3189 0.0330062
7473 2.83982E+7 15467 2.83982E+7 15467 0.00213406 0.00000116232 0.00186206 0.00000108573 23.3116 0.0330045
7474 2.83599E+7 15446.6 2.83599E+7 15446.6 0.00214679 0.00000116929 0.00187308 0.00000109221 23.3043 0.0330051
7475 2.83167E+7 15425.3 2.83167E+7 15425.3 0.00215923 0.00000117623 0.00188422 0.00000109878 23.297 0.0330074
7476 2.8299E+7 15410.8 2.8299E+7 15410.8 0.00217368 0.00000118373 0.00189752 0.00000110598 23.2897 0.0330022
7477 2.82604E+7 15390.5 2.82604E+7 15390.5 0.00218662 0.00000119084 0.00190872 0.00000111259 23.2824 0.033003
7478 2.82102E+7 15367.5 2.82102E+7 15367.5 0.00219874 0.00000119777 0.00191957 0.00000111915 23.2751 0.0330077
7479 2.81874E+7 15351.4 2.81874E+7 15351.4 0.00221305 0.00000120528 0.001932 0.00000112616 23.2678 0.0330037
7480 2.81156E+7 15322.3 2.81156E+7 15322.3 0.00222357 0.0000012118 0.00194103 0.0000011322 23.2605 0.0330144
7481 2.81108E+7 15311.6 2.81108E+7 15311.6 0.00223949 0.00000121983 0.00195491 0.0000011397 23.2532 0.0330057
7482 2.80697E+7 15290.4 2.80697E+7 15290.4 0.0022526 0.00000122706 0.00196708 0.00000114667 23.2459 0.033007
7483 2.80441E+7 15274.2 2.80441E+7 15274.2 0.00226704 0.00000123475 0.00197929 0.00000115373 23.2386 0.0330045
7484 2.79869E+7 15248.6 2.79869E+7 15248.6 0.00227897 0.0000012417 0.0019907 0.00000116052 23.2313 0.0330106
7485 2.79838E+7 15238.4 2.79838E+7 15238.4 0.00229543 0.00000124997 0.00200484 0.00000116817 23.224 0.0330014
7486 2.79173E+7 15211.1 2.79173E+7 15211.1 0.00230674 0.00000125687 0.00201455 0.00000117457 23.2167 0.033011
7487 2.78983E+7 15196.1 2.78983E+7 15196.1 0.00232206 0.00000126483 0.00202712 0.00000118178 23.2094 0.0330061
7488 2.78512E+7 15173.8 2.78512E+7 15173.8 0.00233512 0.00000127222 0.00203862 0.00000118871 23.2021 0.0330097
7489 2.78281E+7 15157.9 2.78281E+7 15157.9 0.00235029 0.00000128021 0.00205269 0.00000119643 23.1948 0.0330061
7490 2.77766E+7 15134.2 2.77766E+7 15134.2 0.00236312 0.00000128757 0.00206482 0.00000120357 23.1875 0.0330108
7491 2.77468E+7 15117.1 2.77468E+7 15117.1 0.00237787 0.00000129553 0.0020771 0.00000121083 23.1802 0.0330099
7492 2.77198E+7 15100 2.77198E+7 15100 0.00239297 0.00000130355 0.00208982 0.00000121818 23.1729 0.0330072
7493 2.76818E+7 15079.9 2.76818E+7 15079.9 0.00240719 0.00000131135 0.00210326 0.00000122577 23.1656 0.0330079
7494 2.76596E+7 15064.5 2.76596E+7 15064.5 0.00242288 0.00000131961 0.00211632 0.00000123331 23.1583 0.0330043
7495 2.76397E+7 15049.4 2.76397E+7 15049.4 0.00243887 0.00000132794 0.00213142 0.00000124143 23.151 0.0329996
7496 2.75658E+7 15019.7 2.75658E+7 15019.7 0.00245018 0.00000133503 0.00214148 0.00000124809 23.1437 0.0330112
7497 2.75593E+7 15008.8 2.75593E+7 15008.8 0.00246754 0.00000134384 0.00215573 0.00000125606 23.1364 0.0330031
7498 2.75173E+7 14987.2 2.75173E+7 14987.2 0.00248183 0.00000135173 0.00216887 0.00000126362 23.1291 0.0330045
7499 2.74707E+7 14965.7 2.74707E+7 14965.7 0.00249578 0.00000135968 0.00218069 0.00000127096 23.1218 0.0330087
7500 2.74433E+7 14948.6 2.74433E+7 14948.6 0.00251156 0.00000136808 0.00219404 0.00000127868 23.1145 0.0330064
7501 2.74035E+7 14928.1 2.74035E+7 14928.1 0.0025263 0.00000137622 0.00220786 0.00000128658 23.1072 0.0330078
7502 2.73864E+7 14913.6 2.73864E+7 14913.6 0.00254322 0.00000138495 0.00222325 0.0000012949 23.0999 0.033002
7503 2.73341E+7 14890.4 2.73341E+7 14890.4 0.00255695 0.00000139292 0.00223537 0.0000013024 23.0926 0.0330078
7504 2.72784E+7 14865.6 2.72784E+7 14865.6 0.00257043 0.00000140079 0.00224716 0.00000130975 23.0853 0.033014
7505 2.72633E+7 14852.2 2.72633E+7 14852.2 0.00258782 0.00000140978 0.00226273 0.00000131826 23.078 0.0330082
7506 2.72438E+7 14837.8 2.72438E+7 14837.8 0.00260492 0.00000141873 0.00227621 0.0000013262 23.0707 0.033004
7507 2.72145E+7 14819.9 2.72145E+7 14819.9 0.00262118 0.0000014274 0.00229219 0.00000133482 23.0634 0.0330018
7508 2.71495E+7 14792.7 2.71495E+7 14792.7 0.00263408 0.00000143521 0.00230319 0.00000134205 23.0561 0.033011
7509 2.7123E+7 14775.9 2.7123E+7 14775.9 0.00265078 0.00000144408 0.00231739 0.00000135023 23.0488 0.0330083
7510 2.7104E+7 14761.6 2.7104E+7 14761.6 0.00266833 0.00000145326 0.00233334 0.00000135899 23.0415 0.033004
7511 2.70817E+7 14746 2.70817E+7 14746 0.00268568 0.00000146237 0.00234901 0.00000136764 23.0342 0.0330001
7512 2.70318E+7 14722.7 2.70318E+7 14722.7 0.00270037 0.00000147075 0.00236243 0.00000137563 23.0269 0.0330044
7513 2.70239E+7 14711.7 2.70239E+7 14711.7 0.00271934 0.00000148041 0.00237787 0.00000138433 23.0196 0.0329969
7514 2.6948E+7 14681.9 2.6948E+7 14681.9 0.00273159 0.00000148825 0.00238852 0.00000139164 23.0123 0.0330099
7515 2.69257E+7 14666.6 2.69257E+7 14666.6 0.00274931 0.00000149757 0.00240515 0.0000014007 23.005 0.0330063
7516 2.68958E+7 14649.7 2.68958E+7 14649.7 0.00276639 0.00000150682 0.00242029 0.00000140941 22.9977 0.0330056
7517 2.68721E+7 14634.2 2.68721E+7 14634.2 0.0027842 0.00000151626 0.00243616 0.00000141833 22.9904 0.0330028
7518 2.68408E+7 14616.4 2.68408E+7 14616.4 0.00280131 0.00000152549 0.00245111 0.00000142695 22.9831 0.0330018
7519 2.6783E+7 14592 2.6783E+7 14592 0.00281576 0.00000153411 0.00246368 0.00000143502 22.9758 0.0330099
7520 2.67825E+7 14582.7 2.67825E+7 14582.7 0.00283635 0.00000154437 0.00248183 0.00000144463 22.9685 0.0329997
7521 2.67432E+7 14563.1 2.67432E+7 14563.1 0.00285293 0.00000155359 0.00249683 0.0000014534 22.9612 0.0330017
7522 2.6695E+7 14540.9 2.6695E+7 14540.9 0.00286864 0.00000156258 0.00251012 0.00000146166 22.9539 0.0330063
7523 2.66726E+7 14528.9 2.66726E+7 14528.9 0.00288724 0.00000157273 0.00252788 0.00000147157 22.9466 0.0330066
7524 2.65522E+7 14511.8 2.65522E+7 14511.8 0.00289522 0.00000158239 0.00253442 0.00000148031 22.9393 0.0330619
7525 2.60446E+7 14506.8 2.60446E+7 14506.8 0.0028605 0.00000159343 0.00250545 0.00000149072 22.9321 0.0333773
7526 2.43717E+7 14505.8 2.43717E+7 14505.8 0.00269595 0.00000160501 0.00236186 0.00000150161 22.9249 0.034504
7527 1.98849E+7 14419.6 1.98849E+7 14419.6 0.00221454 0.00000160703 0.00193906 0.00000150348 22.9182 0.0380898
7528 1.33995E+7 13842.9 1.33995E+7 13842.9 0.00150289 0.00000155377 0.00131447 0.00000145363 22.9111 0.0454637
7529 1.40454E+7 13812.1 1.40454E+7 13812.1 0.00159049 0.00000156263 0.00139075 0.00000146152 22.9015 0.0443382
7530 2.05746E+7 14384.3 2.05746E+7 14384.3 0.0023456 0.00000163878 0.00205456 0.00000153346 22.8948 0.037387
7531 2.44638E+7 14407.2 2.44638E+7 14407.2 0.00280804 0.00000165333 0.00246105 0.00000154718 22.888 0.0343177
7532 2.59E+7 14378.1 2.59E+7 14378.1 0.00299418 0.00000166207 0.00262371 0.00000155535 22.8808 0.0333203
7533 2.62468E+7 14342.9 2.62468E+7 14342.9 0.00305634 0.00000167016 0.00267614 0.00000156265 22.8736 0.0330593
7534 2.62877E+7 14325.3 2.62877E+7 14325.3 0.00308348 0.00000168033 0.00269964 0.00000157224 22.8663 0.0330135
7535 2.62665E+7 14308.5 2.62665E+7 14308.5 0.00310356 0.00000169066 0.00271735 0.00000158198 22.859 0.0330075
7536 2.62443E+7 14293.8 2.62443E+7 14293.8 0.00312367 0.00000170129 0.00273645 0.00000159236 22.8517 0.0330044
7537 2.62256E+7 14279.9 2.62256E+7 14279.9 0.00314429 0.00000171209 0.00275267 0.00000160194 22.8444 0.0330002
7538 2.61869E+7 14260.6 2.61869E+7 14260.6 0.00316266 0.0000017223 0.00276872 0.00000161147 22.8371 0.0330022
7539 2.61631E+7 14245.2 2.61631E+7 14245.2 0.00318292 0.00000173304 0.00278768 0.00000162189 22.8298 0.0329994
7540 2.61147E+7 14222.7 2.61147E+7 14222.7 0.00320032 0.00000174299 0.00280247 0.00000163106 22.8225 0.0330039
7541 2.60682E+7 14201.4 2.60682E+7 14201.4 0.00321803 0.00000175314 0.00281936 0.00000164096 22.8152 0.0330086
7542 2.60494E+7 14187.4 2.60494E+7 14187.4 0.00323928 0.00000176424 0.00283794 0.00000165135 22.8079 0.0330042
7543 2.60035E+7 14166 2.60035E+7 14166 0.00325724 0.00000177446 0.00285396 0.00000166098 22.8006 0.0330083
7544 2.59671E+7 14147.2 2.59671E+7 14147.2 0.00327651 0.0000017851 0.00287081 0.00000167093 22.7933 0.0330096
7545 2.59539E+7 14134.7 2.59539E+7 14134.7 0.00329884 0.00000179659 0.00289148 0.00000168201 22.786 0.0330034
7546 2.58973E+7 14110.5 2.58973E+7 14110.5 0.00331575 0.00000180666 0.00290545 0.00000169117 22.7787 0.0330111
7547 2.58924E+7 14100.5 2.58924E+7 14100.5 0.00333942 0.00000181859 0.00292627 0.0000017024 22.7714 0.0330025
7548 2.58427E+7 14078.2 2.58427E+7 14078.2 0.00335743 0.00000182903 0.00294289 0.0000017124 22.7641 0.0330082
7549 2.58108E+7 14060.5 2.58108E+7 14060.5 0.00337785 0.00000184011 0.00296028 0.00000172262 22.7568 0.0330077
7550 2.57906E+7 14046.3 2.57906E+7 14046.3 0.00339992 0.00000185172 0.00297923 0.00000173339 22.7495 0.0330041
7551 2.57552E+7 14028.1 2.57552E+7 14028.1 0.00342012 0.00000186286 0.00299751 0.00000174397 22.7422 0.0330053
7552 2.57159E+7 14008.5 2.57159E+7 14008.5 0.00343992 0.00000187388 0.00301577 0.00000175456 22.7349 0.0330074
7553 2.56883E+7 13992.4 2.56883E+7 13992.4 0.00346143 0.00000188545 0.00303488 0.00000176547 22.7276 0.0330061
7554 2.56393E+7 13970.4 2.56393E+7 13970.4 0.00348013 0.00000189628 0.00305071 0.00000177543 22.7203 0.0330117
7555 2.56139E+7 13954.7 2.56139E+7 13954.7 0.00350214 0.00000190802 0.00307021 0.00000178649 22.713 0.0330095
7556 2.55898E+7 13939.2 2.55898E+7 13939.2 0.00352449 0.00000191986 0.00309064 0.00000179782 22.7057 0.0330066
7557 2.55686E+7 13924.8 2.55686E+7 13924.8 0.00354735 0.00000193192 0.00311147 0.00000180934 22.6984 0.0330032
7558 2.55124E+7 13900.7 2.55124E+7 13900.7 0.00356551 0.00000194273 0.00312743 0.00000181947 22.6911 0.033011
7559 2.55084E+7 13890.9 2.55084E+7 13890.9 0.00359107 0.00000195558 0.00314905 0.00000183128 22.6838 0.033002
7560 2.54663E+7 13870.8 2.54663E+7 13870.8 0.00361141 0.00000196705 0.00316718 0.0000018421 22.6765 0.0330053
7561 2.5446E+7 13857.5 2.5446E+7 13857.5 0.00363495 0.00000197956 0.00318819 0.00000185392 22.6692 0.0330027
7562 2.53918E+7 13835.2 2.53918E+7 13835.2 0.00365377 0.00000199085 0.00320466 0.00000186448 22.6619 0.0330113
7563 2.53803E+7 13824.6 2.53803E+7 13824.6 0.0036789 0.0000020039 0.00322715 0.00000187681 22.6546 0.0330061
7564 2.53304E+7 13803.4 2.53304E+7 13803.4 0.00369854 0.00000201548 0.00324338 0.00000188739 22.6473 0.0330132
7565 2.53306E+7 13795.8 2.53306E+7 13795.8 0.00372567 0.00000202913 0.00326919 0.00000190075 22.64 0.033004
7566 2.52885E+7 13776.5 2.52885E+7 13776.5 0.00374673 0.00000204113 0.00328717 0.00000191187 22.6327 0.0330083
7567 2.52899E+7 13769.9 2.52899E+7 13769.9 0.00377438 0.00000205511 0.00331075 0.00000192474 22.6254 0.0329996
7568 2.52287E+7 13745.4 2.52287E+7 13745.4 0.00379284 0.00000206648 0.00332834 0.0000019358 22.6181 0.0330102
7569 2.51919E+7 13727.6 2.51919E+7 13727.6 0.00381504 0.00000207891 0.00334688 0.00000194718 22.6108 0.0330128
7570 2.51678E+7 13712.8 2.51678E+7 13712.8 0.00383933 0.00000209189 0.00336926 0.00000195965 22.6035 0.0330108
7571 2.516E+7 13703.6 2.516E+7 13703.6 0.00386626 0.0000021058 0.00339224 0.00000197248 22.5962 0.0330048
7572 2.51354E+7 13689.4 2.51354E+7 13689.4 0.0038908 0.00000211905 0.00341422 0.00000198504 22.5889 0.0330039
7573 2.5111E+7 13675 2.5111E+7 13675 0.00391546 0.00000213232 0.00343591 0.0000019975 22.5816 0.0330026
7574 2.5082E+7 13659.9 2.5082E+7 13659.9 0.0039396 0.00000214556 0.003459 0.00000201045 22.5743 0.0330034
7575 2.50502E+7 13643.5 2.50502E+7 13643.5 0.00396344 0.00000215869 0.00347867 0.00000202242 22.567 0.0330045
7576 2.50184E+7 13627.8 2.50184E+7 13627.8 0.0039874 0.00000217199 0.00350018 0.00000203496 22.5597 0.0330065
7577 2.49991E+7 13614.5 2.49991E+7 13614.5 0.0040135 0.00000218576 0.00352291 0.0000020478 22.5524 0.0330031
7578 2.49705E+7 13599.1 2.49705E+7 13599.1 0.00403828 0.00000219928 0.00354471 0.00000206051 22.5451 0.0330032
7579 2.49374E+7 13582.9 2.49374E+7 13582.9 0.00406247 0.00000221276 0.00356712 0.00000207347 22.5378 0.0330055
7580 2.48798E+7 13559.2 2.48798E+7 13559.2 0.00408278 0.00000222509 0.00358382 0.0000020847 22.5305 0.0330149
7581 2.48492E+7 13543.5 2.48492E+7 13543.5 0.00410764 0.00000223879 0.00360836 0.0000020983 22.5232 0.033016
7582 2.48496E+7 13536.2 2.48496E+7 13536.2 0.00413781 0.00000225398 0.00363296 0.00000211201 22.5159 0.0330068
7583 2.48201E+7 13520.6 2.48201E+7 13520.6 0.00416316 0.00000226788 0.00365612 0.00000212529 22.5086 0.0330075
7584 2.4791E+7 13504.9 2.4791E+7 13504.9 0.00418874 0.00000228184 0.00367818 0.00000213825 22.5013 0.0330077
7585 2.47487E+7 13486.2 2.47487E+7 13486.2 0.00421223 0.00000229537 0.00369867 0.00000215089 22.494 0.033013
7586 2.47472E+7 13478.3 2.47472E+7 13478.3 0.00424286 0.00000231085 0.0037265 0.00000216568 22.4867 0.0330043
7587 2.47018E+7 13458 2.47018E+7 13458 0.00426607 0.00000232426 0.00374764 0.00000217845 22.4794 0.0330098
7588 2.46632E+7 13440.4 2.46632E+7 13440.4 0.00429062 0.00000233823 0.00376899 0.00000219148 22.4721 0.0330139
7589 2.46387E+7 13426.2 2.46387E+7 13426.2 0.00431777 0.00000235287 0.0037937 0.00000220545 22.4648 0.0330129
7590 2.46377E+7 13418.4 2.46377E+7 13418.4 0.00434921 0.00000236873 0.00382192 0.0000022205 22.4575 0.033004
7591 2.4607E+7 13403 2.4607E+7 13403 0.00437563 0.00000238335 0.00384512 0.00000223422 22.4502 0.0330056
7592 2.45868E+7 13389.6 2.45868E+7 13389.6 0.00440406 0.00000239839 0.00386945 0.00000224808 22.443 0.0330026
7593 2.45535E+7 13373.1 2.45535E+7 13373.1 0.00443029 0.00000241298 0.00389341 0.00000226208 22.4357 0.0330046
7594 2.45174E+7 13355.7 2.45174E+7 13355.7 0.00445619 0.00000242751 0.00391638 0.00000227572 22.4284 0.0330075
7595 2.44867E+7 13339.7 2.44867E+7 13339.7 0.00448324 0.00000244237 0.00394053 0.00000228979 22.4211 0.0330083
7596 2.44706E+7 13328.4 2.44706E+7 13328.4 0.0045131 0.00000245817 0.00396562 0.00000230425 22.4138 0.0330052
7597 2.44292E+7 13309.2 2.44292E+7 13309.2 0.00453847 0.0000024726 0.00398806 0.00000231785 22.4065 0.0330093
7598 2.44035E+7 13295.1 2.44035E+7 13295.1 0.00456691 0.00000248808 0.00401327 0.0000023324 22.3992 0.0330092
7599 2.43775E+7 13280.1 2.43775E+7 13280.1 0.00459546 0.00000250348 0.00404009 0.00000234735 22.3919 0.0330082
7600 2.43358E+7 13261.1 2.43358E+7 13261.1 0.0046212 0.00000251822 0.00406218 0.00000236102 22.3846 0.0330129
7601 2.43218E+7 13250.1 2.43218E+7 13250.1 0.00465238 0.00000253455 0.00408986 0.0000023764 22.3773 0.0330086
7602 2.42971E+7 13236.3 2.42971E+7 13236.3 0.00468174 0.00000255048 0.00411584 0.00000239137 22.37 0.0330082
7603 2.4282E+7 13224.3 2.4282E+7 13224.3 0.00471308 0.00000256683 0.00414221 0.00000240636 22.3627 0.0330035
7604 2.4243E+7 13206.2 2.4243E+7 13206.2 0.00473999 0.00000258209 0.00416509 0.00000242044 22.3554 0.0330074
7605 2.42346E+7 13196.7 2.42346E+7 13196.7 0.00477305 0.00000259914 0.00419589 0.00000243694 22.3481 0.0330013
7606 2.41804E+7 13174.7 2.41804E+7 13174.7 0.00479726 0.00000261382 0.00421732 0.00000245075 22.3408 0.0330107
7607 2.41551E+7 13160.5 2.41551E+7 13160.5 0.00482735 0.00000263012 0.00424436 0.00000246618 22.3335 0.0330101
7608 2.41363E+7 13147.8 2.41363E+7 13147.8 0.00485895 0.00000264685 0.00427312 0.00000248217 22.3262 0.0330071
7609 2.41021E+7 13130.8 2.41021E+7 13130.8 0.00488761 0.00000266279 0.00429783 0.00000249695 22.3189 0.0330092
7610 2.40795E+7 13117.5 2.40795E+7 13117.5 0.00491879 0.00000267958 0.00432531 0.00000251272 22.3116 0.033008
7611 2.40304E+7 13096.6 2.40304E+7 13096.6 0.00494475 0.00000269491 0.00434766 0.00000252699 22.3043 0.0330152
7612 2.4038E+7 13091.1 2.4038E+7 13091.1 0.00498251 0.0000027135 0.00438257 0.00000254488 22.297 0.0330031
7613 2.4009E+7 13076.3 2.4009E+7 13076.3 0.00501294 0.00000273029 0.00440982 0.00000256077 22.2897 0.0330045
7614 2.39803E+7 13061 2.39803E+7 13061 0.00504368 0.0000027471 0.00443605 0.00000257628 22.2824 0.0330048
7615 2.39385E+7 13042.1 2.39385E+7 13042.1 0.00507173 0.00000276319 0.0044617 0.00000259169 22.2751 0.0330097
7616 2.39108E+7 13027 2.39108E+7 13027 0.00510301 0.00000278023 0.00449096 0.00000260819 22.2678 0.0330097
7617 2.39026E+7 13017.5 2.39026E+7 13017.5 0.0051386 0.00000279853 0.0045206 0.00000262484 22.2605 0.0330033
7618 2.38591E+7 12998.3 2.38591E+7 12998.3 0.00516684 0.0000028149 0.00454665 0.00000264055 22.2532 0.0330091
7619 2.38473E+7 12987.8 2.38473E+7 12987.8 0.00520213 0.00000283322 0.00457733 0.00000265763 22.2459 0.0330038
7620 2.38084E+7 12969.9 2.38084E+7 12969.9 0.00523167 0.00000285004 0.00460345 0.00000267346 22.2386 0.033008
7621 2.37677E+7 12951.4 2.37677E+7 12951.4 0.005261 0.00000286683 0.00462958 0.0000026893 22.2313 0.0330127
7622 2.37532E+7 12940.2 2.37532E+7 12940.2 0.00529629 0.00000288533 0.00466116 0.00000270681 22.224 0.0330085
7623 2.3727E+7 12925.8 2.3727E+7 12925.8 0.00532925 0.00000290325 0.004691 0.00000272388 22.2167 0.0330083
7624 2.36919E+7 12909.3 2.36919E+7 12909.3 0.00536033 0.00000292078 0.00471958 0.00000274067 22.2094 0.0330117
7625 2.36781E+7 12898.4 2.36781E+7 12898.4 0.00539643 0.00000293966 0.00475128 0.00000275837 22.2021 0.0330073
7626 2.36255E+7 12877.2 2.36255E+7 12877.2 0.00542391 0.00000295634 0.00477556 0.00000277404 22.1948 0.0330168
7627 2.36314E+7 12871.9 2.36314E+7 12871.9 0.00546504 0.00000297679 0.00480921 0.00000279247 22.1875 0.0330059
7628 2.36182E+7 12861.1 2.36182E+7 12861.1 0.00550199 0.00000299608 0.00484349 0.00000281106 22.1802 0.0330013
7629 2.35631E+7 12838.9 2.35631E+7 12838.9 0.00552935 0.00000301282 0.00486979 0.00000282746 22.1729 0.0330114
7630 2.35453E+7 12827.4 2.35453E+7 12827.4 0.00556565 0.00000303217 0.00490005 0.00000284511 22.1656 0.0330091
7631 2.3519E+7 12813.4 2.3519E+7 12813.4 0.00560019 0.00000305107 0.00493096 0.00000286299 22.1583 0.0330095
7632 2.35144E+7 12804.8 2.35144E+7 12804.8 0.00564009 0.00000307134 0.00496657 0.00000288211 22.151 0.0330016
7633 2.34649E+7 12784.6 2.34649E+7 12784.6 0.00566944 0.00000308895 0.0049922 0.00000289858 22.1437 0.0330103
7634 2.34427E+7 12771.4 2.34427E+7 12771.4 0.00570559 0.00000310838 0.00502423 0.00000291689 22.1364 0.0330089
7635 2.34285E+7 12760.4 2.34285E+7 12760.4 0.00574388 0.00000312845 0.00505908 0.00000293603 22.1291 0.0330047
7636 2.34041E+7 12746.7 2.34041E+7 12746.7 0.00577994 0.00000314797 0.00509009 0.00000295415 22.1218 0.0330041
7637 2.33778E+7 12733 2.33778E+7 12733 0.00581573 0.00000316762 0.00512279 0.00000297294 22.1145 0.0330049
7638 2.33417E+7 12715.9 2.33417E+7 12715.9 0.00584932 0.00000318657 0.00515239 0.00000299073 22.1072 0.0330083
7639 2.33232E+7 12704.1 2.33232E+7 12704.1 0.0058875 0.00000320694 0.00518628 0.0000030099 22.0999 0.0330061
7640 2.32919E+7 12688.3 2.32919E+7 12688.3 0.00592266 0.00000322641 0.00521741 0.00000302824 22.0926 0.0330077
7641 2.32746E+7 12677.2 2.32746E+7 12677.2 0.00596163 0.0000032472 0.00525238 0.00000304794 22.0853 0.0330055
7642 2.32373E+7 12659.7 2.32373E+7 12659.7 0.00599563 0.00000326646 0.0052825 0.00000306607 22.078 0.0330092
7643 2.32017E+7 12643.4 2.32017E+7 12643.4 0.00603035 0.00000328616 0.0053135 0.00000308468 22.0707 0.0330132
7644 2.31774E+7 12629.7 2.31774E+7 12629.7 0.00606817 0.00000330665 0.00534867 0.00000310443 22.0634 0.0330126
7645 2.31519E+7 12615.7 2.31519E+7 12615.7 0.00610588 0.00000332717 0.00538009 0.00000312317 22.0561 0.0330124
7646 2.31364E+7 12604.7 2.31364E+7 12604.7 0.0061465 0.00000334864 0.0054153 0.00000314313 22.0488 0.0330091
7647 2.31133E+7 12591.5 2.31133E+7 12591.5 0.00618531 0.00000336962 0.00545052 0.00000316316 22.0415 0.0330083
7648 2.30914E+7 12578.2 2.30914E+7 12578.2 0.00622477 0.00000339075 0.00548715 0.00000318352 22.0342 0.0330066
7649 2.30365E+7 12556.6 2.30365E+7 12556.6 0.00625544 0.00000340971 0.00551313 0.00000320101 22.0269 0.0330175
7650 2.30219E+7 12545.7 2.30219E+7 12545.7 0.00629729 0.0000034317 0.00555101 0.00000322195 22.0196 0.0330136
7651 2.30251E+7 12539.8 2.30251E+7 12539.8 0.0063443 0.00000345523 0.00559085 0.00000324357 22.0123 0.0330035
7652 2.30004E+7 12526 2.30004E+7 12526 0.00638396 0.00000347671 0.00562781 0.00000326433 22.005 0.033003
7653 2.29785E+7 12513.6 2.29785E+7 12513.6 0.00642459 0.00000349873 0.0056629 0.00000328476 21.9977 0.0330025
7654 2.29104E+7 12488 2.29104E+7 12488 0.00645247 0.00000351716 0.00568998 0.00000330284 21.9904 0.0330177
7655 2.29232E+7 12484 2.29232E+7 12484 0.00650334 0.00000354177 0.00573322 0.00000332546 21.9831 0.0330032
7656 2.2877E+7 12464.8 2.2877E+7 12464.8 0.00653781 0.00000356222 0.00576335 0.00000334457 21.9758 0.033011
7657 2.28662E+7 12455.3 2.28662E+7 12455.3 0.00658258 0.00000358557 0.00580497 0.00000336711 21.9685 0.0330062
7658 2.28398E+7 12441 2.28398E+7 12441 0.00662316 0.00000360771 0.00583896 0.00000338741 21.9612 0.0330064
7659 2.28185E+7 12428.4 2.28185E+7 12428.4 0.00666548 0.00000363046 0.00587549 0.00000340854 21.9539 0.033005
7660 2.27896E+7 12413.5 2.27896E+7 12413.5 0.00670574 0.00000365266 0.00591364 0.00000343018 21.9466 0.0330062
7661 2.27532E+7 12396.7 2.27532E+7 12396.7 0.00674413 0.00000367447 0.0059459 0.00000345014 21.9393 0.0330102
7662 2.27246E+7 12382 2.27246E+7 12382 0.00678496 0.00000369697 0.00598367 0.00000347183 21.932 0.0330114
7663 2.27092E+7 12371.2 2.27092E+7 12371.2 0.00683005 0.00000372081 0.00602379 0.00000349432 21.9247 0.0330081
7664 2.26724E+7 12354.1 2.26724E+7 12354.1 0.00686894 0.0000037429 0.00605665 0.00000351463 21.9174 0.0330121
7665 2.26508E+7 12341.5 2.26508E+7 12341.5 0.0069127 0.00000376648 0.00609605 0.00000353701 21.9101 0.0330109
7666 2.26242E+7 12327.4 2.26242E+7 12327.4 0.00695515 0.00000378972 0.00613499 0.00000355924 21.9028 0.0330114
7667 2.26126E+7 12317.8 2.26126E+7 12317.8 0.00700248 0.00000381449 0.00617633 0.0000035824 21.8955 0.033007
7668 2.25868E+7 12303.5 2.25868E+7 12303.5 0.00704579 0.00000383803 0.00621638 0.00000360506 21.8882 0.0330068
7669 2.25607E+7 12289.6 2.25607E+7 12289.6 0.00708918 0.00000386175 0.00625669 0.00000362795 21.8809 0.0330072
7670 2.25288E+7 12274.4 2.25288E+7 12274.4 0.00713101 0.00000388523 0.00629134 0.00000364935 21.8736 0.0330101
7671 2.25438E+7 12271 2.25438E+7 12271 0.00718803 0.00000391261 0.0063415 0.00000367503 21.8663 0.0329946
7672 2.24973E+7 12251.4 2.24973E+7 12251.4 0.00722574 0.00000393499 0.00637715 0.00000369672 21.859 0.0330023
7673 2.24602E+7 12234.9 2.24602E+7 12234.9 0.00726671 0.00000395846 0.00641154 0.00000371828 21.8517 0.0330072
7674 2.24505E+7 12225.4 2.24505E+7 12225.4 0.00731677 0.00000398436 0.0064584 0.00000374336 21.8444 0.0330015
7675 2.24078E+7 12207.1 2.24078E+7 12207.1 0.00735635 0.00000400756 0.0064924 0.00000376488 21.8371 0.0330083
7676 2.2394E+7 12196.8 2.2394E+7 12196.8 0.00740568 0.00000403351 0.0065342 0.00000378877 21.8298 0.0330045
7677 2.2371E+7 12183.4 2.2371E+7 12183.4 0.00745225 0.00000405856 0.00657818 0.00000381312 21.8225 0.0330032
7678 2.234E+7 12168 2.234E+7 12168 0.00749643 0.00000408315 0.00661698 0.00000383616 21.8152 0.0330054
7679 2.23012E+7 12150.7 2.23012E+7 12150.7 0.00753825 0.00000410723 0.00665438 0.00000385895 21.8079 0.0330106
7680 2.22887E+7 12140.7 2.22887E+7 12140.7 0.00758924 0.00000413392 0.00670045 0.00000388433 21.8006 0.0330062
7681 2.22563E+7 12124.8 2.22563E+7 12124.8 0.0076337 0.00000415872 0.00674102 0.000003908 21.7933 0.0330085
7682 2.22235E+7 12109.4 2.22235E+7 12109.4 0.00767832 0.00000418387 0.00677857 0.0000039311 21.786 0.0330119
7683 2.22065E+7 12097.8 2.22065E+7 12097.8 0.00772863 0.00000421048 0.00682341 0.00000395626 21.7787 0.0330087
7684 2.21837E+7 12084.8 2.21837E+7 12084.8 0.00777728 0.00000423679 0.00686965 0.00000398195 21.7714 0.033008
7685 2.21521E+7 12069.6 2.21521E+7 12069.6 0.00782309 0.00000426247 0.00690987 0.00000400593 21.7641 0.0330108
7686 2.21221E+7 12054.4 2.21221E+7 12054.4 0.00786972 0.00000428828 0.0069538 0.00000403105 21.7568 0.0330123
7687 2.21108E+7 12044.6 2.21108E+7 12044.6 0.00792331 0.00000431616 0.00699583 0.00000405576 21.7495 0.0330073
7688 2.20819E+7 12029.8 2.20819E+7 12029.8 0.00797093 0.00000434244 0.00703802 0.00000408043 21.7422 0.0330086
7689 2.20755E+7 12021.2 2.20755E+7 12021.2 0.00802703 0.00000437113 0.00708777 0.00000410741 21.7349 0.0330015
7690 2.20156E+7 11998.4 2.20156E+7 11998.4 0.0080639 0.00000439482 0.0071218 0.00000413014 21.7276 0.033015
7691 2.20099E+7 11990.1 2.20099E+7 11990.1 0.00812083 0.00000442395 0.00717316 0.00000415781 21.7203 0.033008
7692 2.19744E+7 11973.8 2.19744E+7 11973.8 0.00816715 0.00000445028 0.00721585 0.00000418309 21.713 0.0330121
7693 2.19533E+7 11960.9 2.19533E+7 11960.9 0.0082191 0.00000447809 0.00726284 0.00000420955 21.7057 0.0330102
7694 2.19242E+7 11946.5 2.19242E+7 11946.5 0.00826831 0.00000450545 0.00730451 0.00000423476 21.6984 0.0330122
7695 2.19103E+7 11935.8 2.19103E+7 11935.8 0.00832364 0.00000453442 0.00735221 0.00000426163 21.6911 0.033008
7696 2.18574E+7 11914.6 2.18574E+7 11914.6 0.00836437 0.00000455952 0.00738921 0.0000042855 21.6838 0.0330185
7697 2.18518E+7 11906.4 2.18518E+7 11906.4 0.00842347 0.00000458974 0.00744314 0.00000431438 21.6765 0.0330113
7698 2.18275E+7 11893.1 2.18275E+7 11893.1 0.00847572 0.00000461818 0.00748931 0.00000434116 21.6692 0.0330112
7699 2.1795E+7 11877.7 2.1795E+7 11877.7 0.00852515 0.00000464601 0.00753497 0.00000436786 21.6619 0.0330144
7700 2.1788E+7 11868.9 2.1788E+7 11868.9 0.00858488 0.00000467661 0.00758672 0.00000439635 21.6546 0.0330075
