# Instrument-source: 'mcstasscript_soleil_rock_111.instr'
# Date: Fri Jan 27 01 21 2023
# Ncount: 10000000
# Numpoints: 1101
# Param: Etohit = 6900
# type: multiarray_1d(1101)
# title: Scan of Etohit
# xlabel: 'Etohit'
# ylabel: 'Intensity'
# xvars: Etohit
# yvars: (EnergyMonitor_before_sample_I,EnergyMonitor_before_sample_ERR) (e_repartition_after_m2b_I,e_repartition_after_m2b_ERR) (EnergyMonitor_after_sample_I,EnergyMonitor_after_sample_ERR) (psd_monitor_I,psd_monitor_ERR) (absorption_coefficient_I,absorption_coefficient_ERR)
# xlimits: 6900 8000
# filename: mccode.dat
# variables: Etohit EnergyMonitor_before_sample_I EnergyMonitor_before_sample_ERR e_repartition_after_m2b_I e_repartition_after_m2b_ERR EnergyMonitor_after_sample_I EnergyMonitor_after_sample_ERR psd_monitor_I psd_monitor_ERR absorption_coefficient_I absorption_coefficient_ERR
6900 5.82982E+7 31727 5.82982E+7 31727 817382 444.835 687382 407.927 4.26722 0.0329915
6901 5.82057E+7 31682.4 5.82057E+7 31682.4 817592 445.029 687287 408.027 4.26538 0.0329945
6902 5.81635E+7 31650.9 5.81635E+7 31650.9 818507 445.408 688314 408.448 4.26353 0.03299
6903 5.80894E+7 31610.2 5.80894E+7 31610.2 818973 445.656 688543 408.628 4.26169 0.0329898
6904 5.802E+7 31570.2 5.802E+7 31570.2 819504 445.914 689347 408.973 4.25984 0.0329887
6905 5.7939E+7 31529 5.7939E+7 31529 819870 446.153 689462 409.132 4.258 0.0329902
6906 5.7843E+7 31481.8 5.7843E+7 31481.8 820023 446.309 689705 409.313 4.25616 0.0329929
6907 5.77559E+7 31438 5.77559E+7 31438 820299 446.51 690145 409.558 4.25431 0.0329947
6908 5.77279E+7 31410.4 5.77279E+7 31410.4 821414 446.941 690773 409.864 4.25247 0.0329882
6909 5.7628E+7 31362.9 5.7628E+7 31362.9 821507 447.089 691348 410.143 4.25062 0.0329918
6910 5.75655E+7 31324.9 5.75655E+7 31324.9 822131 447.371 691956 410.426 4.24878 0.0329897
6911 5.74846E+7 31283.8 5.74846E+7 31283.8 822490 447.609 692076 410.592 4.24694 0.0329913
6912 5.74092E+7 31242.6 5.74092E+7 31242.6 822929 447.846 692278 410.762 4.24509 0.0329912
6913 5.73372E+7 31202.2 5.73372E+7 31202.2 823413 448.092 692903 411.051 4.24325 0.0329906
6914 5.72537E+7 31159.5 5.72537E+7 31159.5 823730 448.303 693132 411.233 4.2414 0.032992
6915 5.71993E+7 31124.6 5.71993E+7 31124.6 824446 448.616 694017 411.604 4.23959 0.0329892
6916 5.709E+7 31074.6 5.709E+7 31074.6 824275 448.66 693640 411.574 4.23788 0.0329942
6917 5.70389E+7 31040.2 5.70389E+7 31040.2 824862 448.885 694488 411.885 4.23627 0.0329907
6918 5.69397E+7 30993.1 5.69397E+7 30993.1 824746 448.921 694215 411.869 4.23467 0.0329944
6919 5.68664E+7 30954 5.68664E+7 30954 825003 449.073 694688 412.081 4.23307 0.0329948
6920 5.68104E+7 30917.1 5.68104E+7 30917.1 825510 449.255 695232 412.289 4.23147 0.0329914
6921 5.67387E+7 30878.3 5.67387E+7 30878.3 825788 449.409 695172 412.339 4.22987 0.0329915
6922 5.66328E+7 30828.9 5.66328E+7 30828.9 825566 449.409 695205 412.405 4.22827 0.0329959
6923 5.65963E+7 30799.5 5.65963E+7 30799.5 826355 449.7 696115 412.743 4.22667 0.0329908
6924 5.65097E+7 30755.1 5.65097E+7 30755.1 826410 449.77 695800 412.701 4.22508 0.0329923
6925 5.64463E+7 30717.4 5.64463E+7 30717.4 826805 449.937 696305 412.906 4.22348 0.0329905
6926 5.63239E+7 30665.1 5.63239E+7 30665.1 826333 449.89 695672 412.788 4.22188 0.0329982
6927 5.62822E+7 30632.8 5.62822E+7 30632.8 827044 450.136 696659 413.136 4.22028 0.0329931
6928 5.62148E+7 30595.4 5.62148E+7 30595.4 827375 450.307 696869 413.266 4.21868 0.0329927
6929 5.61927E+7 30569.2 5.61927E+7 30569.2 828374 450.641 697962 413.65 4.21708 0.0329851
6930 5.60665E+7 30515.3 5.60665E+7 30515.3 827837 450.566 697501 413.578 4.21548 0.032993
6931 5.59757E+7 30470.2 5.59757E+7 30470.2 827819 450.622 697650 413.68 4.21388 0.0329954
6932 5.592E+7 30434.3 5.592E+7 30434.3 828319 450.81 698219 413.894 4.21228 0.0329923
6933 5.58523E+7 30396.9 5.58523E+7 30396.9 828641 450.977 698211 413.965 4.21068 0.032992
6934 5.57668E+7 30353.3 5.57668E+7 30353.3 828697 451.051 698342 414.058 4.20908 0.0329936
6935 5.57093E+7 30318.1 5.57093E+7 30318.1 829168 451.249 698974 414.312 4.20748 0.0329915
6936 5.56551E+7 30282.3 5.56551E+7 30282.3 829686 451.438 699405 414.487 4.20588 0.0329881
6937 5.55513E+7 30234.5 5.55513E+7 30234.5 829463 451.446 699303 414.517 4.20428 0.0329928
6938 5.54481E+7 30186.9 5.54481E+7 30186.9 829250 451.459 699277 414.57 4.20268 0.0329975
6939 5.54084E+7 30156.3 5.54084E+7 30156.3 829982 451.722 700032 414.861 4.20108 0.0329926
6940 5.53505E+7 30120 5.53505E+7 30120 830442 451.9 700115 414.923 4.19948 0.0329899
6941 5.52614E+7 30076 5.52614E+7 30076 830433 451.963 700201 415.01 4.19788 0.0329924
6942 5.51991E+7 30038.9 5.51991E+7 30038.9 830824 452.128 700493 415.153 4.19628 0.0329907
6943 5.50859E+7 29987.4 5.50859E+7 29987.4 830447 452.075 700283 415.134 4.19468 0.0329962
6944 5.50613E+7 29962.1 5.50613E+7 29962.1 831406 452.417 701401 415.539 4.19308 0.0329897
6945 5.49837E+7 29920.7 5.49837E+7 29920.7 831564 452.515 701368 415.584 4.19148 0.0329901
6946 5.48744E+7 29872.3 5.48744E+7 29872.3 831239 452.507 701176 415.602 4.18989 0.0329962
6947 5.48442E+7 29843.3 5.48442E+7 29843.3 832111 452.792 701868 415.848 4.18829 0.0329893
6948 5.47523E+7 29798.5 5.47523E+7 29798.5 832046 452.835 702229 416.015 4.18669 0.0329922
6949 5.46445E+7 29749.6 5.46445E+7 29749.6 831739 452.816 701784 415.94 4.18509 0.0329976
6950 5.461E+7 29720.9 5.461E+7 29720.9 832543 453.104 702584 416.238 4.18349 0.0329921
6951 5.45529E+7 29685.4 5.45529E+7 29685.4 833005 453.286 702731 416.338 4.18189 0.0329896
6952 5.44624E+7 29640.7 5.44624E+7 29640.7 832954 453.329 702801 416.415 4.18029 0.0329922
6953 5.43831E+7 29598.8 5.43831E+7 29598.8 833073 453.413 702914 416.492 4.17869 0.0329929
6954 5.43335E+7 29566.4 5.43335E+7 29566.4 833645 453.641 703672 416.777 4.17709 0.0329899
6955 5.42317E+7 29518.2 5.42317E+7 29518.2 833414 453.626 703492 416.773 4.17549 0.0329939
6956 5.41465E+7 29476.5 5.41465E+7 29476.5 833437 453.711 703217 416.76 4.17389 0.0329965
6957 5.4072E+7 29435.4 5.4072E+7 29435.4 833624 453.803 703949 417.016 4.17229 0.0329962
6958 5.40227E+7 29402.7 5.40227E+7 29402.7 834197 454.025 704284 417.177 4.17069 0.0329929
6959 5.39695E+7 29368.6 5.39695E+7 29368.6 834710 454.224 704406 417.265 4.16909 0.03299
6960 5.38893E+7 29327.4 5.38893E+7 29327.4 834804 454.313 704997 417.504 4.16749 0.0329914
6961 5.38276E+7 29290.8 5.38276E+7 29290.8 835181 454.472 705160 417.603 4.16589 0.0329897
6962 5.37654E+7 29254.8 5.37654E+7 29254.8 835554 454.64 705638 417.801 4.16429 0.0329884
6963 5.36736E+7 29210 5.36736E+7 29210 835461 454.671 705285 417.753 4.16269 0.0329914
6964 5.3612E+7 29172.6 5.3612E+7 29172.6 835838 454.816 705591 417.882 4.16109 0.0329892
6965 5.35367E+7 29133.1 5.35367E+7 29133.1 835999 454.927 706070 418.081 4.15949 0.03299
6966 5.34826E+7 29098.8 5.34826E+7 29098.8 836492 455.118 706344 418.221 4.15789 0.0329873
6967 5.34232E+7 29063.5 5.34232E+7 29063.5 836902 455.295 706746 418.397 4.15629 0.0329856
6968 5.32989E+7 29010.9 5.32989E+7 29010.9 836291 455.199 706599 418.414 4.15469 0.0329941
6969 5.32303E+7 28973.6 5.32303E+7 28973.6 836550 455.34 706435 418.432 4.1531 0.0329941
6970 5.3135E+7 28929.3 5.3135E+7 28929.3 836368 455.36 706635 418.555 4.15152 0.0329985
6971 5.30975E+7 28900.4 5.30975E+7 28900.4 837069 455.608 707509 418.87 4.14998 0.0329936
6972 5.30025E+7 28855.7 5.30025E+7 28855.7 836853 455.601 707200 418.827 4.14845 0.0329976
6973 5.29937E+7 28835 5.29937E+7 28835 837997 455.973 708266 419.2 4.14691 0.0329885
6974 5.29105E+7 28793.8 5.29105E+7 28793.8 837966 456.019 708463 419.305 4.14538 0.0329908
6975 5.28325E+7 28754.2 5.28325E+7 28754.2 838014 456.091 708375 419.327 4.14385 0.0329925
6976 5.27487E+7 28713.3 5.27487E+7 28713.3 837969 456.141 708222 419.341 4.14231 0.0329952
6977 5.27331E+7 28690.1 5.27331E+7 28690.1 839007 456.472 709168 419.668 4.14078 0.0329867
6978 5.26778E+7 28657.5 5.26778E+7 28657.5 839411 456.653 710053 419.998 4.13925 0.0329853
6979 5.25799E+7 28612 5.25799E+7 28612 839138 456.627 709389 419.842 4.13772 0.0329897
6980 5.25019E+7 28572.2 5.25019E+7 28572.2 839178 456.692 709693 419.978 4.13618 0.0329913
6981 5.23845E+7 28522.3 5.23845E+7 28522.3 838586 456.593 709201 419.897 4.13465 0.0329994
6982 5.23388E+7 28490.9 5.23388E+7 28490.9 839141 456.791 709370 419.989 4.13312 0.0329956
6983 5.22855E+7 28458.4 5.22855E+7 28458.4 839572 456.969 709907 420.203 4.13158 0.0329936
6984 5.22367E+7 28427.8 5.22367E+7 28427.8 840076 457.178 710338 420.397 4.13005 0.0329912
6985 5.21702E+7 28390.4 5.21702E+7 28390.4 840292 457.276 710744 420.549 4.12852 0.0329905
6986 5.21103E+7 28356.2 5.21103E+7 28356.2 840615 457.428 711168 420.735 4.12698 0.0329896
6987 5.20196E+7 28313.2 5.20196E+7 28313.2 840441 457.434 710933 420.716 4.12545 0.0329933
6988 5.19393E+7 28273.6 5.19393E+7 28273.6 840430 457.496 710528 420.655 4.12392 0.0329957
6989 5.1906E+7 28245.4 5.1906E+7 28245.4 841179 457.74 712006 421.129 4.12238 0.0329898
6990 5.18299E+7 28206.3 5.18299E+7 28206.3 841234 457.807 711918 421.154 4.12085 0.0329912
6991 5.17339E+7 28162.4 5.17339E+7 28162.4 840965 457.796 711747 421.158 4.11932 0.0329961
6992 5.16955E+7 28133.3 5.16955E+7 28133.3 841630 458.026 712017 421.281 4.11779 0.0329913
6993 5.15979E+7 28089.2 5.15979E+7 28089.2 841330 458.009 712211 421.394 4.11625 0.0329966
6994 5.158E+7 28065.1 5.158E+7 28065.1 842329 458.318 713030 421.68 4.11472 0.0329881
6995 5.14376E+7 28008.4 5.14376E+7 28008.4 841293 458.093 711967 421.409 4.11319 0.0330003
6996 5.13614E+7 27969 5.13614E+7 27969 841334 458.151 712155 421.511 4.11165 0.0330016
6997 5.13716E+7 27954.3 5.13716E+7 27954.3 842792 458.612 713523 421.979 4.11012 0.0329896
6998 5.13108E+7 27920.1 5.13108E+7 27920.1 843087 458.754 713681 422.077 4.10859 0.032989
6999 5.12314E+7 27879.4 5.12314E+7 27879.4 843073 458.789 713661 422.11 4.10705 0.0329905
7000 5.11314E+7 27833.9 5.11314E+7 27833.9 842718 458.743 713554 422.125 4.10552 0.0329958
7001 5.11014E+7 27807.4 5.11014E+7 27807.4 843516 459.009 714300 422.388 4.10399 0.0329898
7002 5.10169E+7 27766.1 5.10169E+7 27766.1 843414 459.03 714274 422.428 4.10246 0.0329925
7003 5.09292E+7 27724.7 5.09292E+7 27724.7 843255 459.05 714227 422.47 4.10092 0.0329963
7004 5.08735E+7 27691.8 5.08735E+7 27691.8 843625 459.208 714505 422.608 4.09939 0.0329948
7005 5.08067E+7 27655.6 5.08067E+7 27655.6 843809 459.31 714661 422.702 4.09786 0.0329948
7006 5.07419E+7 27619.8 5.07419E+7 27619.8 844027 459.42 714948 422.831 4.09632 0.0329945
7007 5.06941E+7 27588.4 5.06941E+7 27588.4 844525 459.602 715482 423.029 4.09479 0.0329913
7008 5.06015E+7 27546 5.06015E+7 27546 844275 459.599 715255 423.027 4.09326 0.0329961
7009 5.0553E+7 27514 5.0553E+7 27514 844761 459.77 715806 423.227 4.09172 0.0329927
7010 5.04635E+7 27470.9 5.04635E+7 27470.9 844559 459.754 715427 423.146 4.09019 0.0329961
7011 5.03943E+7 27434.7 5.03943E+7 27434.7 844694 459.852 715902 423.347 4.08866 0.032997
7012 5.03575E+7 27407.3 5.03575E+7 27407.3 845374 460.099 716385 423.547 4.08712 0.0329926
7013 5.02545E+7 27361 5.02545E+7 27361 844937 460.025 716224 423.537 4.08559 0.0329984
7014 5.0197E+7 27326.2 5.0197E+7 27326.2 845267 460.146 716402 423.622 4.08406 0.0329964
7015 5.01299E+7 27290.8 5.01299E+7 27290.8 845432 460.254 716406 423.683 4.08253 0.032997
7016 5.00975E+7 27264.3 5.00975E+7 27264.3 846182 460.512 717503 424.052 4.08099 0.0329916
7017 5.00272E+7 27227 5.00272E+7 27227 846291 460.589 717379 424.061 4.07946 0.0329922
7018 4.99734E+7 27194.2 4.99734E+7 27194.2 846677 460.74 717552 424.148 4.07793 0.0329901
7019 4.9864E+7 27146.1 4.9864E+7 27146.1 846121 460.631 717329 424.125 4.07639 0.0329971
7020 4.97972E+7 27109.7 4.97972E+7 27109.7 846283 460.717 717330 424.172 4.07486 0.032997
7021 4.97151E+7 27070 4.97151E+7 27070 846183 460.749 717789 424.355 4.07333 0.0330001
7022 4.96884E+7 27045 4.96884E+7 27045 847027 461.031 718202 424.525 4.07179 0.0329937
7023 4.96069E+7 27004.9 4.96069E+7 27004.9 846934 461.053 718159 424.553 4.07026 0.0329963
7024 4.95592E+7 26974.2 4.95592E+7 26974.2 847419 461.236 718403 424.674 4.06873 0.0329934
7025 4.94839E+7 26935.3 4.94839E+7 26935.3 847429 461.277 718517 424.752 4.0672 0.0329947
7026 4.94475E+7 26907.2 4.94475E+7 26907.2 848104 461.502 719493 425.072 4.06566 0.0329896
7027 4.9366E+7 26867.4 4.9366E+7 26867.4 848007 461.526 719398 425.095 4.06413 0.0329924
7028 4.93207E+7 26837.3 4.93207E+7 26837.3 848526 461.717 719684 425.223 4.0626 0.0329891
7029 4.92235E+7 26793.8 4.92235E+7 26793.8 848154 461.676 719469 425.216 4.06106 0.0329948
7030 4.91511E+7 26755.5 4.91511E+7 26755.5 848206 461.722 719677 425.301 4.05953 0.0329955
7031 4.9065E+7 26714.1 4.9065E+7 26714.1 848020 461.716 719571 425.315 4.058 0.0329989
7032 4.90138E+7 26682.5 4.90138E+7 26682.5 848435 461.878 719699 425.397 4.05646 0.0329966
7033 4.89308E+7 26642.4 4.89308E+7 26642.4 848297 461.89 719944 425.517 4.05493 0.0329997
7034 4.89044E+7 26617.9 4.89044E+7 26617.9 849140 462.174 720597 425.762 4.0534 0.0329935
7035 4.88019E+7 26571.1 4.88019E+7 26571.1 848660 462.068 720243 425.672 4.05187 0.032999
7036 4.87527E+7 26540.1 4.87527E+7 26540.1 849104 462.238 720505 425.797 4.05033 0.0329965
7037 4.87066E+7 26510.6 4.87066E+7 26510.6 849604 462.432 721514 426.148 4.0488 0.0329937
7038 4.86236E+7 26469.8 4.86236E+7 26469.8 849457 462.43 721487 426.178 4.04727 0.0329964
7039 4.85734E+7 26438.8 4.85734E+7 26438.8 849883 462.597 721715 426.294 4.04573 0.0329941
7040 4.85019E+7 26402 4.85019E+7 26402 849932 462.66 721447 426.255 4.0442 0.0329954
7041 4.84069E+7 26357.4 4.84069E+7 26357.4 849570 462.588 721198 426.205 4.04267 0.0329999
7042 4.83831E+7 26333.8 4.83831E+7 26333.8 850456 462.884 721946 426.478 4.04113 0.0329933
7043 4.82907E+7 26291 4.82907E+7 26291 850134 462.839 722016 426.545 4.0396 0.0329979
7044 4.82306E+7 26257.2 4.82306E+7 26257.2 850377 462.953 722506 426.73 4.03807 0.0329973
7045 4.8157E+7 26219.6 4.8157E+7 26219.6 850382 463 722281 426.709 4.03654 0.0329988
7046 4.81413E+7 26197.7 4.81413E+7 26197.7 851409 463.322 723199 427.015 4.035 0.0329904
7047 4.80581E+7 26156.7 4.80581E+7 26156.7 851242 463.309 722969 426.974 4.03347 0.0329931
7048 4.79908E+7 26122.1 4.79908E+7 26122.1 851354 463.405 723249 427.119 4.03194 0.0329944
7049 4.79391E+7 26089.4 4.79391E+7 26089.4 851742 463.534 723401 427.182 4.0304 0.0329915
7050 4.78863E+7 26057.9 4.78863E+7 26057.9 852109 463.684 724237 427.485 4.02887 0.0329897
7051 4.78027E+7 26017.2 4.78027E+7 26017.2 851926 463.671 723566 427.315 4.02734 0.0329928
7052 4.77425E+7 25983.2 4.77425E+7 25983.2 852159 463.775 724031 427.488 4.0258 0.032992
7053 4.76751E+7 25947.2 4.76751E+7 25947.2 852261 463.845 724324 427.618 4.02427 0.0329925
7054 4.75937E+7 25908.1 4.75937E+7 25908.1 852113 463.855 724509 427.72 4.02274 0.0329957
7055 4.75297E+7 25873.3 4.75297E+7 25873.3 852272 463.944 723925 427.589 4.0212 0.0329958
7056 4.74619E+7 25836.3 4.74619E+7 25836.3 852362 463.991 724484 427.768 4.01967 0.0329957
7057 4.74387E+7 25813 4.74387E+7 25813 853252 464.284 725327 428.068 4.01814 0.0329889
7058 4.73335E+7 25767.7 4.73335E+7 25767.7 852666 464.18 724630 427.912 4.01661 0.0329966
7059 4.72799E+7 25735.1 4.72799E+7 25735.1 853007 464.305 725197 428.109 4.01507 0.0329944
7060 4.72301E+7 25703.3 4.72301E+7 25703.3 853416 464.44 725651 428.268 4.01354 0.0329913
7061 4.71692E+7 25669.9 4.71692E+7 25669.9 853623 464.549 725844 428.37 4.01201 0.0329912
7062 4.70875E+7 25629.9 4.70875E+7 25629.9 853451 464.537 725516 428.305 4.01047 0.0329941
7063 4.70133E+7 25592.7 4.70133E+7 25592.7 853415 464.574 725742 428.418 4.00894 0.0329961
7064 4.69504E+7 25559.2 4.69504E+7 25559.2 853580 464.679 726104 428.578 4.00741 0.0329966
7065 4.68922E+7 25525 4.68922E+7 25525 853831 464.769 725873 428.526 4.00587 0.032995
7066 4.68234E+7 25488.7 4.68234E+7 25488.7 853884 464.82 726041 428.62 4.00434 0.0329957
7067 4.67758E+7 25458.6 4.67758E+7 25458.6 854325 464.983 726623 428.826 4.00281 0.032993
7068 4.66667E+7 25411.5 4.66667E+7 25411.5 853641 464.835 726052 428.691 4.00128 0.033001
7069 4.66407E+7 25386.2 4.66407E+7 25386.2 854475 465.085 726854 428.951 3.99974 0.0329937
7070 4.65877E+7 25355 4.65877E+7 25355 854813 465.226 727221 429.105 3.99821 0.0329922
7071 4.65293E+7 25321.5 4.65293E+7 25321.5 855051 465.323 727399 429.184 3.99668 0.032991
7072 4.64746E+7 25290.1 4.64746E+7 25290.1 855357 465.46 727921 429.387 3.99514 0.03299
7073 4.63584E+7 25240.3 4.63584E+7 25240.3 854525 465.256 727178 429.189 3.99361 0.0329988
7074 4.63552E+7 25222.4 4.63552E+7 25222.4 855779 465.64 728316 429.568 3.99208 0.0329882
7075 4.62278E+7 25170.3 4.62278E+7 25170.3 854735 465.391 727422 429.332 3.99054 0.0329996
7076 4.61995E+7 25145.9 4.61995E+7 25145.9 855519 465.649 727943 429.529 3.98902 0.0329936
7077 4.6135E+7 25110.8 4.6135E+7 25110.8 855611 465.701 728428 429.695 3.98751 0.0329937
7078 4.60851E+7 25082.1 4.60851E+7 25082.1 855951 465.856 728257 429.703 3.98603 0.0329926
7079 4.6028E+7 25049.3 4.6028E+7 25049.3 856156 465.936 728855 429.909 3.98455 0.0329915
7080 4.59589E+7 25013.8 4.59589E+7 25013.8 856134 465.963 728999 429.978 3.98308 0.0329929
7081 4.59139E+7 24986.5 4.59139E+7 24986.5 856561 466.144 729414 430.158 3.9816 0.032991
7082 4.58173E+7 24943.4 4.58173E+7 24943.4 856024 466.029 728873 430.03 3.98012 0.0329973
7083 4.57556E+7 24908.9 4.57556E+7 24908.9 856135 466.071 729049 430.087 3.97864 0.0329967
7084 4.57056E+7 24879.8 4.57056E+7 24879.8 856463 466.216 729463 430.261 3.97716 0.0329955
7085 4.56521E+7 24848.6 4.56521E+7 24848.6 856726 466.319 729475 430.297 3.97569 0.0329941
7086 4.55594E+7 24807.9 4.55594E+7 24807.9 856253 466.244 729564 430.375 3.97421 0.0330005
7087 4.55339E+7 24783.5 4.55339E+7 24783.5 857038 466.475 730048 430.528 3.97273 0.0329936
7088 4.55033E+7 24759.5 4.55033E+7 24759.5 857731 466.712 730754 430.782 3.97125 0.0329886
7089 4.53988E+7 24715.2 4.53988E+7 24715.2 857025 466.566 730113 430.64 3.96977 0.032997
7090 4.53445E+7 24684.1 4.53445E+7 24684.1 857266 466.669 730233 430.703 3.96829 0.032996
7091 4.53011E+7 24655.3 4.53011E+7 24655.3 857713 466.814 730908 430.928 3.96682 0.0329926
7092 4.52312E+7 24620.4 4.52312E+7 24620.4 857656 466.843 730895 430.97 3.96534 0.0329947
7093 4.51772E+7 24588.8 4.51772E+7 24588.8 857899 466.934 730992 431.018 3.96386 0.0329932
7094 4.5075E+7 24545.1 4.5075E+7 24545.1 857226 466.794 730551 430.924 3.96238 0.0330012
7095 4.50519E+7 24523.1 4.50519E+7 24523.1 858054 467.064 731000 431.095 3.9609 0.0329948
7096 4.49691E+7 24484.8 4.49691E+7 24484.8 857742 467.024 730666 431.041 3.95943 0.0329994
7097 4.4931E+7 24457.5 4.4931E+7 24457.5 858283 467.194 731458 431.295 3.95795 0.032995
7098 4.48283E+7 24412.4 4.48283E+7 24412.4 857588 467.021 731123 431.218 3.95647 0.0330023
7099 4.47986E+7 24389.3 4.47986E+7 24389.3 858287 467.269 731757 431.454 3.95499 0.0329976
7100 4.4735E+7 24355.6 4.4735E+7 24355.6 858338 467.315 732066 431.573 3.95351 0.0329983
7101 4.47042E+7 24330.6 4.47042E+7 24330.6 859015 467.526 732245 431.653 3.95204 0.0329927
7102 4.4629E+7 24294.8 4.4629E+7 24294.8 858837 467.528 732289 431.714 3.95056 0.0329962
7103 4.45649E+7 24259.8 4.45649E+7 24259.8 858874 467.545 732289 431.715 3.94908 0.032996
7104 4.44842E+7 24222.8 4.44842E+7 24222.8 856825 466.585 730588 430.845 3.94966 0.0330012
7105 4.44458E+7 24196.2 4.44458E+7 24196.2 717895 400.236 612135 369.594 4.1257 0.0331951
7106 4.44202E+7 24172.8 4.44202E+7 24172.8 438648 255.457 374039 235.901 4.61775 0.0335643
7107 4.43426E+7 24136.4 4.43426E+7 24136.4 224181 130.594 191193 120.607 5.28725 0.0335687
7108 4.42829E+7 24103 4.42829E+7 24103 114651 66.7849 97770.5 61.6717 5.95646 0.0335679
7109 4.41985E+7 24064.2 4.41985E+7 24064.2 58568.7 34.1259 49929.5 31.5059 6.62624 0.0335726
7110 4.4168E+7 24040.3 4.4168E+7 24040.3 29963.6 17.4534 25554.2 16.1175 7.29577 0.0335676
7111 4.40945E+7 24003.8 4.40945E+7 24003.8 15319.1 8.92462 13071 8.2441 7.96499 0.0335701
7112 4.40113E+7 23965.1 4.40113E+7 23965.1 7830.52 4.56292 6679.57 4.2142 8.63417 0.0335743
7113 4.39852E+7 23941.7 4.39852E+7 23941.7 4005.93 2.33354 3418.22 2.15561 9.30383 0.0335684
7114 4.39475E+7 23916.4 4.39475E+7 23916.4 2048.87 1.19334 1747.92 1.10219 9.97346 0.0335655
7115 4.38607E+7 23875.6 4.38607E+7 23875.6 1046.98 0.60991 893.394 0.563394 10.6429 0.0335693
7116 4.37797E+7 23837.8 4.37797E+7 23837.8 535.081 0.311782 456.64 0.288021 11.3123 0.0335735
7117 4.37584E+7 23815.8 4.37584E+7 23815.8 273.777 0.159449 233.654 0.147302 11.9819 0.0335658
7118 4.36746E+7 23777.3 4.36746E+7 23777.3 139.932 0.0815286 119.38 0.0753016 12.6511 0.0335716
7119 4.36062E+7 23742.6 4.36062E+7 23742.6 71.4894 0.0416559 61.0026 0.038479 13.3212 0.0335733
7120 4.35682E+7 23715.8 4.35682E+7 23715.8 36.5775 0.0213081 31.2247 0.0196871 13.9904 0.0335691
7121 4.35476E+7 23694.8 4.35476E+7 23694.8 18.7273 0.010905 15.9861 0.0100748 14.6594 0.0335621
7122 4.3462E+7 23655.9 4.3462E+7 23655.9 9.56568 0.00557173 8.16591 0.00514793 15.3292 0.0335672
7123 4.34133E+7 23626.3 4.34133E+7 23626.3 4.89071 0.00284838 4.17608 0.00263203 15.9989 0.0335652
7124 4.3327E+7 23586.5 4.3327E+7 23586.5 2.49956 0.00145621 2.13452 0.00134565 16.6682 0.0335704
7125 4.32237E+7 23542.7 4.32237E+7 23542.7 1.27701 0.000744348 1.08987 0.000687599 17.3374 0.0335791
7126 4.32409E+7 23531.7 4.32409E+7 23531.7 0.654102 0.000380934 0.558462 0.000351997 18.0068 0.0335645
7127 4.31401E+7 23488.5 4.31401E+7 23488.5 0.333843 0.000194525 0.28498 0.000179714 18.677 0.0335731
7128 4.30952E+7 23460.4 4.30952E+7 23460.4 0.170877 0.0000995481 0.145901 0.0000919847 19.3457 0.0335702
7129 4.30297E+7 23426 4.30297E+7 23426 0.0873429 0.0000508897 0.0746097 0.0000470364 20.0153 0.0335717
7130 4.29975E+7 23401.2 4.29975E+7 23401.2 0.0446788 0.0000260235 0.038166 0.0000240512 20.6849 0.0335664
7131 4.2923E+7 23365.8 4.2923E+7 23365.8 0.0228333 0.0000133015 0.0195031 0.000012293 21.3545 0.0335696
7132 4.28529E+7 23330 4.28529E+7 23330 0.0116739 0.00000680107 0.00997378 0.00000628668 22.0237 0.033571
7133 4.2803E+7 23301.6 4.2803E+7 23301.6 0.00596757 0.00000347661 0.00509796 0.00000321331 22.6935 0.0335705
7134 4.27055E+7 23259.7 4.27055E+7 23259.7 0.00304937 0.00000177739 0.00260564 0.000001643 23.3627 0.0335786
7135 4.27351E+7 23252.2 4.27351E+7 23252.2 0.0015615 9.09254E-7 0.00133411 8.40402E-7 24.0326 0.0335618
7136 4.26227E+7 23207.9 4.26227E+7 23207.9 0.000797628 4.64772E-7 0.000681411 4.29552E-7 24.7018 0.0335736
7137 4.25837E+7 23184 4.25837E+7 23184 0.000407966 2.37687E-7 0.000348605 2.19724E-7 25.3713 0.0335715
7138 4.22414E+7 23506 4.22414E+7 23506 0.000207864 1.22014E-7 0.000177686 1.1279E-7 26.0375 0.033815
7139 3.77229E+7 29139.6 3.77229E+7 29139.6 0.000098747 6.88964E-8 0.000084432 6.36884E-8 26.6687 0.0383428
7140 3.51638E+7 31638.5 3.51638E+7 31638.5 0.0000444782 4.4439E-8 0.0000379883 4.10688E-8 27.396 0.043576
7141 3.96348E+7 26584.1 3.96348E+7 26584.1 0.0000252108 2.09716E-8 0.0000215579 1.9394E-8 28.0835 0.0387631
7142 4.2244E+7 23084.5 4.2244E+7 23084.5 0.0000142278 8.35091E-9 0.0000121648 7.7199E-9 28.7193 0.033666
7143 4.22895E+7 23021.9 4.22895E+7 23021.9 0.00000729397 4.24934E-9 0.00000623426 3.92852E-9 29.3885 0.0335704
7144 4.22069E+7 22986.3 4.22069E+7 22986.3 0.00000372717 2.17233E-9 0.00000318724 2.00889E-9 30.058 0.0335775
7145 4.22052E+7 22971.4 4.22052E+7 22971.4 0.00000190885 1.11181E-9 0.00000163211 1.02805E-9 30.7271 0.0335668
7146 4.21187E+7 22934.4 4.21187E+7 22934.4 9.7525E-7 5.68291E-10 8.33837E-7 5.25463E-10 31.3966 0.0335743
7147 4.21123E+7 22919.2 4.21123E+7 22919.2 5.08837E-7 2.93613E-10 4.35165E-7 2.7152E-10 32.047 0.0334853
7148 4.20121E+7 22877.9 4.20121E+7 22877.9 3.39308E-7 1.85839E-10 2.90222E-7 1.71875E-10 32.4498 0.0330493
7149 4.20084E+7 22863.7 4.20084E+7 22863.7 3.24196E-7 1.76454E-10 2.77247E-7 1.63177E-10 32.4953 0.0329932
7150 4.19407E+7 22831.4 4.19407E+7 22831.4 3.27919E-7 1.78516E-10 2.80456E-7 1.6509E-10 32.4823 0.0329964
7151 4.18847E+7 22802.5 4.18847E+7 22802.5 3.31781E-7 1.8063E-10 2.83765E-7 1.67049E-10 32.4692 0.0329975
7152 4.18299E+7 22775.4 4.18299E+7 22775.4 3.35691E-7 1.82781E-10 2.87123E-7 1.69041E-10 32.4562 0.0329995
7153 4.18084E+7 22755 4.18084E+7 22755 3.39922E-7 1.85014E-10 2.9081E-7 1.71129E-10 32.4432 0.0329932
7154 4.17304E+7 22721 4.17304E+7 22721 3.43738E-7 1.8716E-10 2.93977E-7 1.73082E-10 32.4301 0.0329994
7155 4.16705E+7 22690.7 4.16705E+7 22690.7 3.47749E-7 1.89364E-10 2.97555E-7 1.75165E-10 32.4171 0.033001
7156 4.16277E+7 22665.6 4.16277E+7 22665.6 3.51948E-7 1.91635E-10 3.01087E-7 1.77247E-10 32.4041 0.0329997
7157 4.15445E+7 22629 4.15445E+7 22629 3.55856E-7 1.93838E-10 3.0454E-7 1.79319E-10 32.391 0.0330061
7158 4.15076E+7 22605.7 4.15076E+7 22605.7 3.60204E-7 1.96178E-10 3.08252E-7 1.81482E-10 32.378 0.0330038
7159 4.14729E+7 22582.2 4.14729E+7 22582.2 3.64625E-7 1.98546E-10 3.11969E-7 1.83652E-10 32.3649 0.0330004
7160 4.14267E+7 22556.2 4.14267E+7 22556.2 3.68996E-7 2.00918E-10 3.15823E-7 1.85878E-10 32.3519 0.0329998
7161 4.13745E+7 22528.6 4.13745E+7 22528.6 3.73365E-7 2.03304E-10 3.19515E-7 1.88073E-10 32.3389 0.0330003
7162 4.13262E+7 22502.2 4.13262E+7 22502.2 3.77823E-7 2.05731E-10 3.23434E-7 1.9035E-10 32.3258 0.0330003
7163 4.12829E+7 22477.3 4.12829E+7 22477.3 3.82379E-7 2.08199E-10 3.27355E-7 1.92639E-10 32.3128 0.0329993
7164 4.12529E+7 22455.7 4.12529E+7 22455.7 3.87112E-7 2.10727E-10 3.31561E-7 1.95023E-10 32.2998 0.0329955
7165 4.11946E+7 22425.7 4.11946E+7 22425.7 3.91638E-7 2.13207E-10 3.35463E-7 1.97325E-10 32.2867 0.0329967
7166 4.11699E+7 22405.7 4.11699E+7 22405.7 3.9654E-7 2.15814E-10 3.39557E-7 1.99704E-10 32.2737 0.0329919
7167 4.10872E+7 22369.9 4.10872E+7 22369.9 4.00935E-7 2.18295E-10 3.4327E-7 2.01987E-10 32.2607 0.0329987
7168 4.10717E+7 22352.5 4.10717E+7 22352.5 4.06043E-7 2.20988E-10 3.47738E-7 2.04509E-10 32.2476 0.0329921
7169 4.10122E+7 22323.1 4.10122E+7 22323.1 4.10775E-7 2.23592E-10 3.51782E-7 2.06914E-10 32.2346 0.0329943
7170 4.09224E+7 22284.4 4.09224E+7 22284.4 4.1525E-7 2.26131E-10 3.55594E-7 2.09259E-10 32.2216 0.0330018
7171 4.09096E+7 22268.5 4.09096E+7 22268.5 4.2057E-7 2.28937E-10 3.60315E-7 2.11902E-10 32.2085 0.0329952
7172 4.08453E+7 22237.1 4.08453E+7 22237.1 4.25414E-7 2.31611E-10 3.64351E-7 2.14345E-10 32.1955 0.0329978
7173 4.07721E+7 22204.3 4.07721E+7 22204.3 4.30227E-7 2.34306E-10 3.68599E-7 2.16876E-10 32.1825 0.0330031
7174 4.0756E+7 22186.7 4.0756E+7 22186.7 4.35696E-7 2.3719E-10 3.73297E-7 2.19549E-10 32.1694 0.0329966
7175 4.06947E+7 22156.7 4.06947E+7 22156.7 4.40753E-7 2.39979E-10 3.77372E-7 2.22052E-10 32.1564 0.0329991
7176 4.06454E+7 22128.6 4.06454E+7 22128.6 4.45991E-7 2.42818E-10 3.82161E-7 2.24771E-10 32.1434 0.0329982
7177 4.06272E+7 22111.5 4.06272E+7 22111.5 4.51642E-7 2.45815E-10 3.87018E-7 2.27549E-10 32.1303 0.0329927
7178 4.05505E+7 22077.1 4.05505E+7 22077.1 4.56703E-7 2.48651E-10 3.91363E-7 2.30178E-10 32.1173 0.0329982
7179 4.04819E+7 22045 4.04819E+7 22045 4.6191E-7 2.51546E-10 3.96025E-7 2.32918E-10 32.1043 0.0330022
7180 4.0442E+7 22020.5 4.0442E+7 22020.5 4.67511E-7 2.54564E-10 4.00784E-7 2.35701E-10 32.0912 0.0330001
7181 4.04357E+7 22005.1 4.04357E+7 22005.1 4.73575E-7 2.57726E-10 4.05802E-7 2.38575E-10 32.0782 0.0329911
7182 4.03586E+7 21970.9 4.03586E+7 21970.9 4.78872E-7 2.60701E-10 4.10446E-7 2.41356E-10 32.0651 0.0329969
7183 4.02777E+7 21935.9 4.02777E+7 21935.9 4.84178E-7 2.63698E-10 4.15157E-7 2.44182E-10 32.0521 0.0330038
7184 4.0276E+7 21922.9 4.0276E+7 21922.9 4.90512E-7 2.67001E-10 4.20444E-7 2.47197E-10 32.0391 0.0329947
7185 4.01946E+7 21887.3 4.01946E+7 21887.3 4.95945E-7 2.70066E-10 4.25041E-7 2.50015E-10 32.026 0.0330012
7186 4.01669E+7 21866.1 4.01669E+7 21866.1 5.021E-7 2.73341E-10 4.30465E-7 2.53093E-10 32.013 0.0329966
7187 4.00953E+7 21834.3 4.00953E+7 21834.3 5.07782E-7 2.76525E-10 4.35457E-7 2.56076E-10 32 0.033002
7188 4.00807E+7 21818.1 4.00807E+7 21818.1 5.14258E-7 2.79947E-10 4.41082E-7 2.59263E-10 31.9869 0.0329958
7189 4.00058E+7 21785.4 4.00058E+7 21785.4 5.20033E-7 2.83194E-10 4.45881E-7 2.62227E-10 31.9739 0.0330019
7190 3.99767E+7 21763.9 3.99767E+7 21763.9 5.26466E-7 2.86624E-10 4.5152E-7 2.65441E-10 31.9609 0.0329976
7191 3.9936E+7 21741 3.9936E+7 21741 5.32835E-7 2.90081E-10 4.56789E-7 2.68583E-10 31.9478 0.0329971
7192 3.99044E+7 21719.4 3.99044E+7 21719.4 5.394E-7 2.93596E-10 4.62659E-7 2.7191E-10 31.9348 0.0329937
7193 3.98391E+7 21689.1 3.98391E+7 21689.1 5.45584E-7 2.97034E-10 4.68111E-7 2.7514E-10 31.9218 0.0329978
7194 3.97759E+7 21659.9 3.97759E+7 21659.9 5.51867E-7 3.00527E-10 4.73465E-7 2.7836E-10 31.9087 0.0330017
7195 3.97213E+7 21632 3.97213E+7 21632 5.58333E-7 3.04074E-10 4.79118E-7 2.81677E-10 31.8957 0.0330031
7196 3.96763E+7 21607.3 3.96763E+7 21607.3 5.65021E-7 3.07714E-10 4.84692E-7 2.85001E-10 31.8827 0.033003
7197 3.96561E+7 21588.4 3.96561E+7 21588.4 5.72142E-7 3.11478E-10 4.90824E-7 2.88493E-10 31.8696 0.0329969
7198 3.96055E+7 21563.3 3.96055E+7 21563.3 5.78911E-7 3.15199E-10 4.96627E-7 2.91938E-10 31.8566 0.0329988
7199 3.95356E+7 21531.3 3.95356E+7 21531.3 5.85466E-7 3.18857E-10 5.02297E-7 2.95342E-10 31.8436 0.0330034
7200 3.95041E+7 21510.1 3.95041E+7 21510.1 5.92675E-7 3.22723E-10 5.08483E-7 2.98925E-10 31.8305 0.0330003
7201 3.95016E+7 21497.5 3.95016E+7 21497.5 6.00418E-7 3.26767E-10 5.15177E-7 3.02688E-10 31.8175 0.0329917
7202 3.94267E+7 21464.3 3.94267E+7 21464.3 6.07142E-7 3.30543E-10 5.20979E-7 3.06191E-10 31.8045 0.0329975
7203 3.93712E+7 21436.4 3.93712E+7 21436.4 6.1424E-7 3.34444E-10 5.27276E-7 3.09867E-10 31.7914 0.0329993
7204 3.93362E+7 21414.3 3.93362E+7 21414.3 6.21747E-7 3.38483E-10 5.33535E-7 3.13554E-10 31.7784 0.032997
7205 3.93015E+7 21392.4 3.93015E+7 21392.4 6.2935E-7 3.42575E-10 5.40292E-7 3.17413E-10 31.7654 0.0329947
7206 3.91824E+7 21347.6 3.91824E+7 21347.6 6.35676E-7 3.46343E-10 5.45819E-7 3.2093E-10 31.7523 0.0330102
7207 3.92133E+7 21344.2 3.92133E+7 21344.2 6.44526E-7 3.50832E-10 5.53402E-7 3.25089E-10 31.7393 0.0329945
7208 3.91156E+7 21304.8 3.91156E+7 21304.8 6.5135E-7 3.54776E-10 5.59427E-7 3.28794E-10 31.7262 0.0330052
7209 3.91086E+7 21290.4 3.91086E+7 21290.4 6.59776E-7 3.59186E-10 5.66527E-7 3.32835E-10 31.7132 0.0329969
7210 3.90581E+7 21264.9 3.90581E+7 21264.9 6.67568E-7 3.63462E-10 5.73356E-7 3.3684E-10 31.7002 0.0329985
7211 3.90058E+7 21237.1 3.90058E+7 21237.1 6.75421E-7 3.67751E-10 5.80064E-7 3.40806E-10 31.6872 0.0329991
7212 3.89775E+7 21217.9 3.89775E+7 21217.9 6.83786E-7 3.72238E-10 5.8711E-7 3.44919E-10 31.6741 0.0329961
7213 3.89289E+7 21192.4 3.89289E+7 21192.4 6.91897E-7 3.7667E-10 5.94323E-7 3.49101E-10 31.6611 0.0329968
7214 3.88531E+7 21158.8 3.88531E+7 21158.8 6.99609E-7 3.81007E-10 6.01125E-7 3.53171E-10 31.648 0.0330028
7215 3.88178E+7 21137.3 3.88178E+7 21137.3 7.08144E-7 3.85613E-10 6.08161E-7 3.57357E-10 31.635 0.033001
7216 3.87823E+7 21114.6 3.87823E+7 21114.6 7.16776E-7 3.90251E-10 6.15701E-7 3.6169E-10 31.622 0.0329984
7217 3.87402E+7 21090.8 3.87402E+7 21090.8 7.25396E-7 3.94928E-10 6.22811E-7 3.65935E-10 31.6089 0.0329977
7218 3.86734E+7 21060.3 3.86734E+7 21060.3 7.33641E-7 3.99528E-10 6.30285E-7 3.70318E-10 31.5959 0.0330023
7219 3.8647E+7 21040.8 3.8647E+7 21040.8 7.42763E-7 4.04398E-10 6.38248E-7 3.74869E-10 31.5829 0.0329983
7220 3.85856E+7 21011.7 3.85856E+7 21011.7 7.51313E-7 4.09137E-10 6.45591E-7 3.79263E-10 31.5698 0.0330017
7221 3.85516E+7 20990.5 3.85516E+7 20990.5 7.60497E-7 4.14084E-10 6.53443E-7 3.83839E-10 31.5568 0.0329995
7222 3.85261E+7 20971.1 3.85261E+7 20971.1 7.69967E-7 4.19132E-10 6.6174E-7 3.88559E-10 31.5438 0.0329952
7223 3.84694E+7 20943.5 3.84694E+7 20943.5 7.78923E-7 4.24073E-10 6.6937E-7 3.93121E-10 31.5307 0.0329978
7224 3.84274E+7 20919 3.84274E+7 20919 7.8828E-7 4.29135E-10 6.7735E-7 3.97791E-10 31.5177 0.0329966
7225 3.84121E+7 20903 3.84121E+7 20903 7.98297E-7 4.34427E-10 6.861E-7 4.02748E-10 31.5047 0.0329905
7226 3.82964E+7 20859.1 3.82964E+7 20859.1 8.0634E-7 4.39205E-10 6.93118E-7 4.07203E-10 31.4916 0.0330055
7227 3.82801E+7 20841.8 3.82801E+7 20841.8 8.16574E-7 4.446E-10 7.0186E-7 4.12185E-10 31.4786 0.0329989
7228 3.82517E+7 20822.6 3.82517E+7 20822.6 8.26669E-7 4.50015E-10 7.10678E-7 4.17247E-10 31.4656 0.0329959
7229 3.81997E+7 20795.7 3.81997E+7 20795.7 8.36383E-7 4.55335E-10 7.18795E-7 4.22114E-10 31.4525 0.032997
7230 3.8137E+7 20766.8 3.8137E+7 20766.8 8.45966E-7 4.60668E-10 7.27323E-7 4.27149E-10 31.4395 0.0330012
7231 3.81113E+7 20747.5 3.81113E+7 20747.5 8.56487E-7 4.66279E-10 7.36625E-7 4.32425E-10 31.4264 0.032997
7232 3.80843E+7 20728.2 3.80843E+7 20728.2 8.6711E-7 4.71957E-10 7.45547E-7 4.37629E-10 31.4134 0.0329933
7233 3.80311E+7 20700.9 3.80311E+7 20700.9 8.77254E-7 4.77515E-10 7.54503E-7 4.42849E-10 31.4004 0.0329946
7234 3.79645E+7 20670.7 3.79645E+7 20670.7 8.87215E-7 4.83079E-10 7.63193E-7 4.48044E-10 31.3873 0.0329995
7235 3.79189E+7 20646.2 3.79189E+7 20646.2 8.97767E-7 4.88832E-10 7.72018E-7 4.53308E-10 31.3743 0.0329997
7236 3.78819E+7 20623.6 3.78819E+7 20623.6 9.08669E-7 4.94709E-10 7.81481E-7 4.58782E-10 31.3613 0.0329977
7237 3.78612E+7 20606.2 3.78612E+7 20606.2 9.20082E-7 5.00774E-10 7.91444E-7 4.64452E-10 31.3482 0.0329928
7238 3.77463E+7 20562.5 3.77463E+7 20562.5 9.29325E-7 5.0627E-10 7.99041E-7 4.69441E-10 31.3352 0.033008
7239 3.7738E+7 20548.2 3.7738E+7 20548.2 9.41311E-7 5.12553E-10 8.10104E-7 4.75492E-10 31.3222 0.0330001
7240 3.76832E+7 20520.7 3.76832E+7 20520.7 9.52276E-7 5.18584E-10 8.19231E-7 4.80989E-10 31.3091 0.033002
7241 3.7659E+7 20502.1 3.7659E+7 20502.1 9.64147E-7 5.24911E-10 8.29981E-7 4.87023E-10 31.2961 0.0329977
7242 3.76066E+7 20475.4 3.76066E+7 20475.4 9.75438E-7 5.31104E-10 8.39155E-7 4.92607E-10 31.2831 0.0329991
7243 3.75602E+7 20450.2 3.75602E+7 20450.2 9.87022E-7 5.37412E-10 8.49237E-7 4.98493E-10 31.27 0.0329991
7244 3.75147E+7 20426 3.75147E+7 20426 9.98756E-7 5.43818E-10 8.5947E-7 5.04471E-10 31.257 0.0329996
7245 3.74845E+7 20406 3.74845E+7 20406 0.00000101104 5.50411E-10 8.69762E-7 5.10509E-10 31.244 0.0329967
7246 3.74478E+7 20383.6 3.74478E+7 20383.6 0.00000102331 5.57023E-10 8.80726E-7 5.16761E-10 31.2309 0.0329948
7247 3.73912E+7 20356.3 3.73912E+7 20356.3 0.00000103517 5.63577E-10 8.91198E-7 5.22916E-10 31.2179 0.0329976
7248 3.73246E+7 20325.9 3.73246E+7 20325.9 0.00000104689 5.7012E-10 9.01266E-7 5.28984E-10 31.2049 0.0330024
7249 3.72875E+7 20303.4 3.72875E+7 20303.4 0.00000105957 5.76959E-10 9.1218E-7 5.35327E-10 31.1918 0.0330005
7250 3.72367E+7 20277.5 3.72367E+7 20277.5 0.000001072 5.83783E-10 9.22844E-7 5.41641E-10 31.1788 0.033002
7251 3.7227E+7 20262.7 3.7227E+7 20262.7 0.00000108579 5.9101E-10 9.34826E-7 5.48391E-10 31.1658 0.0329942
7252 3.71561E+7 20231.1 3.71561E+7 20231.1 0.00000109793 5.97827E-10 9.45163E-7 5.54679E-10 31.1527 0.0329999
7253 3.71124E+7 20207.7 3.71124E+7 20207.7 0.00000111103 6.04971E-10 9.56458E-7 5.61312E-10 31.1397 0.0330002
7254 3.7071E+7 20183.9 3.7071E+7 20183.9 0.00000112421 6.12109E-10 9.68234E-7 5.68058E-10 31.1268 0.0329992
7255 3.70111E+7 20155.8 3.70111E+7 20155.8 0.00000113651 6.18943E-10 9.78737E-7 5.74379E-10 31.1143 0.0330029
7256 3.69763E+7 20134 3.69763E+7 20134 0.00000114938 6.25863E-10 9.89851E-7 5.80815E-10 31.1021 0.0330005
7257 3.69483E+7 20114.5 3.69483E+7 20114.5 0.00000116258 6.32918E-10 0.00000100105 5.87304E-10 31.0899 0.032997
7258 3.68584E+7 20077.5 3.68584E+7 20077.5 0.00000117397 6.39501E-10 0.00000101116 5.93496E-10 31.0777 0.0330069
7259 3.68256E+7 20056.6 3.68256E+7 20056.6 0.00000118731 6.46669E-10 0.00000102272 6.00171E-10 31.0655 0.0330044
7260 3.68301E+7 20046 3.68301E+7 20046 0.00000120201 6.5425E-10 0.00000103576 6.07322E-10 31.0533 0.0329937
7261 3.67596E+7 20014.5 3.67596E+7 20014.5 0.00000121442 6.61229E-10 0.00000104609 6.13696E-10 31.0412 0.0329993
7262 3.67071E+7 19988.9 3.67071E+7 19988.9 0.00000122755 6.68482E-10 0.00000105779 6.20544E-10 31.029 0.0330017
7263 3.66789E+7 19969.2 3.66789E+7 19969.2 0.00000124165 6.76014E-10 0.00000106996 6.27534E-10 31.0168 0.0329982
7264 3.66205E+7 19939.9 3.66205E+7 19939.9 0.00000125487 6.83295E-10 0.00000108118 6.34243E-10 31.0046 0.0330002
7265 3.6574E+7 19916.1 3.6574E+7 19916.1 0.00000126864 6.90845E-10 0.00000109278 6.41172E-10 30.9924 0.0330015
7266 3.65591E+7 19899.8 3.65591E+7 19899.8 0.00000128367 6.98742E-10 0.00000110619 6.48643E-10 30.9802 0.0329947
7267 3.64895E+7 19868.6 3.64895E+7 19868.6 0.00000129694 7.06201E-10 0.00000111771 6.55587E-10 30.968 0.0330003
7268 3.64318E+7 19841.4 3.64318E+7 19841.4 0.00000131075 7.13873E-10 0.00000112937 6.62641E-10 30.9559 0.0330037
7269 3.64096E+7 19823.3 3.64096E+7 19823.3 0.00000132602 7.21974E-10 0.00000114251 6.70164E-10 30.9437 0.0329988
7270 3.63737E+7 19801.6 3.63737E+7 19801.6 0.00000134095 7.30019E-10 0.00000115593 6.77788E-10 30.9315 0.032997
7271 3.63139E+7 19773.2 3.63139E+7 19773.2 0.00000135517 7.37918E-10 0.00000116842 6.85195E-10 30.9193 0.0330004
7272 3.6271E+7 19749 3.6271E+7 19749 0.00000137016 7.4605E-10 0.00000118085 6.92605E-10 30.9071 0.0329998
7273 3.62208E+7 19723.8 3.62208E+7 19723.8 0.00000138503 7.54222E-10 0.00000119406 7.00301E-10 30.8949 0.0330015
7274 3.61545E+7 19693.8 3.61545E+7 19693.8 0.00000139944 7.6231E-10 0.00000120642 7.07787E-10 30.8828 0.0330066
7275 3.61219E+7 19672.9 3.61219E+7 19672.9 0.00000141533 7.70846E-10 0.00000121973 7.15598E-10 30.8706 0.033004
7276 3.60733E+7 19648.1 3.60733E+7 19648.1 0.00000143075 7.79306E-10 0.00000123372 7.23663E-10 30.8584 0.0330054
7277 3.60481E+7 19628.8 3.60481E+7 19628.8 0.00000144728 7.88086E-10 0.00000124798 7.3182E-10 30.8462 0.0330007
7278 3.59881E+7 19600.4 3.59881E+7 19600.4 0.00000146258 7.96591E-10 0.00000126129 7.39749E-10 30.834 0.0330043
7279 3.59825E+7 19587.5 3.59825E+7 19587.5 0.00000148028 8.05827E-10 0.00000127634 7.48261E-10 30.8218 0.032996
7280 3.59547E+7 19568.1 3.59547E+7 19568.1 0.00000149728 8.14904E-10 0.00000129153 7.56847E-10 30.8096 0.0329924
7281 3.58932E+7 19539.2 3.58932E+7 19539.2 0.00000151304 8.23671E-10 0.00000130535 7.65055E-10 30.7975 0.0329963
7282 3.58471E+7 19514.7 3.58471E+7 19514.7 0.00000152962 8.32725E-10 0.0000013196 7.73451E-10 30.7853 0.0329968
7283 3.57831E+7 19484.8 3.57831E+7 19484.8 0.0000015456 8.41638E-10 0.00000133308 7.81632E-10 30.7731 0.0330009
7284 3.57363E+7 19461 3.57363E+7 19461 0.00000156251 8.50916E-10 0.00000134817 7.90396E-10 30.7609 0.0330024
7285 3.57182E+7 19444 3.57182E+7 19444 0.00000158086 8.60598E-10 0.00000136407 7.99421E-10 30.7487 0.0329963
7286 3.56548E+7 19414.6 3.56548E+7 19414.6 0.00000159741 8.69835E-10 0.00000137772 8.07816E-10 30.7365 0.0330007
7287 3.55819E+7 19383.7 3.55819E+7 19383.7 0.00000161369 8.79099E-10 0.00000139267 8.16686E-10 30.7243 0.0330082
7288 3.55563E+7 19364.1 3.55563E+7 19364.1 0.0000016323 8.88975E-10 0.00000140827 8.25724E-10 30.7121 0.0330033
7289 3.555E+7 19350.5 3.555E+7 19350.5 0.00000165201 8.9924E-10 0.00000142567 8.35372E-10 30.7 0.0329947
7290 3.54823E+7 19320.4 3.54823E+7 19320.4 0.00000166908 9.0885E-10 0.00000144058 8.4434E-10 30.6878 0.0330004
7291 3.54555E+7 19300.6 3.54555E+7 19300.6 0.00000168826 9.19049E-10 0.00000145705 8.53805E-10 30.6756 0.032996
7292 3.53852E+7 19270 3.53852E+7 19270 0.00000170558 9.28842E-10 0.00000147206 8.62918E-10 30.6634 0.0330025
7293 3.53445E+7 19247.3 3.53445E+7 19247.3 0.0000017245 9.39124E-10 0.00000148834 8.72455E-10 30.6512 0.0330021
7294 3.53101E+7 19226 3.53101E+7 19226 0.00000174394 9.49578E-10 0.00000150604 8.82426E-10 30.639 0.0329999
7295 3.5268E+7 19203.3 3.5268E+7 19203.3 0.00000176321 9.60083E-10 0.00000152271 8.92208E-10 30.6269 0.033
7296 3.52316E+7 19181.9 3.52316E+7 19181.9 0.00000178299 9.70774E-10 0.00000154018 9.02249E-10 30.6147 0.0329987
7297 3.51668E+7 19152.9 3.51668E+7 19152.9 0.00000180155 9.81197E-10 0.00000155555 9.1174E-10 30.6025 0.0330041
7298 3.51725E+7 19143.3 3.51725E+7 19143.3 0.00000182392 9.92727E-10 0.00000157546 9.22638E-10 30.5903 0.0329932
7299 3.50779E+7 19106.1 3.50779E+7 19106.1 0.0000018413 1.00294E-9 0.00000158981 9.31928E-10 30.5781 0.0330056
7300 3.50696E+7 19092.7 3.50696E+7 19092.7 0.00000186345 1.01453E-9 0.00000160881 9.42665E-10 30.5659 0.0329978
7301 3.50117E+7 19066.1 3.50117E+7 19066.1 0.00000188317 1.02553E-9 0.00000162694 9.53225E-10 30.5537 0.0330021
7302 3.49791E+7 19046 3.49791E+7 19046 0.0000019045 1.03702E-9 0.00000164459 9.63657E-10 30.5416 0.0330001
7303 3.49271E+7 19020.4 3.49271E+7 19020.4 0.00000192497 1.04832E-9 0.00000166271 9.74297E-10 30.5294 0.0330025
7304 3.48952E+7 19000.8 3.48952E+7 19000.8 0.00000194679 1.06007E-9 0.00000168176 9.85275E-10 30.5172 0.0330005
7305 3.48689E+7 18981.9 3.48689E+7 18981.9 0.00000196916 1.072E-9 0.00000170155 9.96499E-10 30.505 0.0329966
7306 3.47918E+7 18950.4 3.47918E+7 18950.4 0.00000198891 1.08334E-9 0.00000171859 1.00704E-9 30.4928 0.0330056
7307 3.47707E+7 18932.5 3.47707E+7 18932.5 0.00000201207 1.09559E-9 0.00000173782 1.0182E-9 30.4806 0.0330001
7308 3.46896E+7 18899.7 3.46896E+7 18899.7 0.00000203198 1.1071E-9 0.00000175607 1.02919E-9 30.4684 0.03301
7309 3.47158E+7 18895.8 3.47158E+7 18895.8 0.00000205846 1.12045E-9 0.00000177875 1.04156E-9 30.4563 0.0329941
7310 3.46306E+7 18861.6 3.46306E+7 18861.6 0.00000207858 1.13213E-9 0.00000179599 1.05236E-9 30.4441 0.0330048
7311 3.46046E+7 18842.8 3.46046E+7 18842.8 0.00000210247 1.14486E-9 0.00000181652 1.06415E-9 30.4319 0.0330007
7312 3.4577E+7 18824.9 3.4577E+7 18824.9 0.00000212654 1.15779E-9 0.00000183706 1.0761E-9 30.4197 0.0329982
7313 3.45223E+7 18798.8 3.45223E+7 18798.8 0.00000214922 1.17036E-9 0.00000185791 1.08817E-9 30.4075 0.0330014
7314 3.44863E+7 18778.7 3.44863E+7 18778.7 0.0000021733 1.18345E-9 0.00000187737 1.09993E-9 30.3953 0.033001
7315 3.44185E+7 18748.2 3.44185E+7 18748.2 0.00000219562 1.19601E-9 0.00000189769 1.11192E-9 30.3832 0.0330066
7316 3.44421E+7 18743.4 3.44421E+7 18743.4 0.00000222407 1.21037E-9 0.00000192292 1.12544E-9 30.371 0.0329911
7317 3.43777E+7 18714.7 3.43777E+7 18714.7 0.0000022471 1.22332E-9 0.00000194275 1.13746E-9 30.3588 0.0329967
7318 3.43271E+7 18690.4 3.43271E+7 18690.4 0.00000227133 1.23672E-9 0.00000196319 1.14976E-9 30.3466 0.0329996
7319 3.42729E+7 18664.4 3.42729E+7 18664.4 0.00000229552 1.25013E-9 0.00000198483 1.16245E-9 30.3344 0.0330026
7320 3.42166E+7 18637.7 3.42166E+7 18637.7 0.00000231986 1.26366E-9 0.00000200638 1.17518E-9 30.3222 0.0330062
7321 3.42107E+7 18624.9 3.42107E+7 18624.9 0.00000234789 1.27827E-9 0.00000203071 1.18879E-9 30.31 0.0329977
7322 3.41417E+7 18595.3 3.41417E+7 18595.3 0.00000237189 1.29188E-9 0.00000205143 1.20145E-9 30.2979 0.0330048
7323 3.4097E+7 18572 3.4097E+7 18572 0.00000239782 1.30608E-9 0.00000207353 1.21454E-9 30.2857 0.0330057
7324 3.40753E+7 18555.4 3.40753E+7 18555.4 0.00000242567 1.32091E-9 0.00000209796 1.22845E-9 30.2735 0.0330014
7325 3.4024E+7 18529.8 3.4024E+7 18529.8 0.0000024517 1.33525E-9 0.00000212045 1.24177E-9 30.2613 0.0330035
7326 3.40043E+7 18513.6 3.40043E+7 18513.6 0.00000248036 1.35046E-9 0.00000214538 1.25596E-9 30.2491 0.0329986
7327 3.39446E+7 18487 3.39446E+7 18487 0.00000250632 1.36503E-9 0.00000216833 1.26965E-9 30.2369 0.0330039
7328 3.39201E+7 18468.6 3.39201E+7 18468.6 0.00000253522 1.38039E-9 0.00000219309 1.28387E-9 30.2247 0.0329994
7329 3.38777E+7 18446 3.38777E+7 18446 0.00000256311 1.39562E-9 0.00000221782 1.2982E-9 30.2126 0.0329999
7330 3.38368E+7 18424.2 3.38368E+7 18424.2 0.00000259141 1.41106E-9 0.0000022421 1.31253E-9 30.2004 0.0330002
7331 3.37953E+7 18401.6 3.37953E+7 18401.6 0.00000261995 1.4266E-9 0.00000226659 1.32691E-9 30.1882 0.0330002
7332 3.37673E+7 18383.1 3.37673E+7 18383.1 0.00000264986 1.44264E-9 0.00000229255 1.34185E-9 30.176 0.0329974
7333 3.3716E+7 18358.4 3.3716E+7 18358.4 0.00000267828 1.45836E-9 0.00000231857 1.35691E-9 30.1638 0.0330002
7334 3.36801E+7 18337.2 3.36801E+7 18337.2 0.00000270824 1.47454E-9 0.00000234345 1.37165E-9 30.1516 0.0329988
7335 3.36384E+7 18314.7 3.36384E+7 18314.7 0.00000273805 1.49079E-9 0.00000237003 1.38699E-9 30.1394 0.0329989
7336 3.36129E+7 18297.2 3.36129E+7 18297.2 0.00000276952 1.50762E-9 0.00000239672 1.40249E-9 30.1273 0.0329956
7337 3.35414E+7 18266.8 3.35414E+7 18266.8 0.0000027975 1.52357E-9 0.00000242146 1.41749E-9 30.1151 0.0330034
7338 3.34897E+7 18241.3 3.34897E+7 18241.3 0.00000282743 1.54009E-9 0.00000244705 1.43274E-9 30.1029 0.0330057
7339 3.34526E+7 18220.2 3.34526E+7 18220.2 0.00000285892 1.55717E-9 0.00000247443 1.44868E-9 30.0907 0.033005
7340 3.34001E+7 18195.3 3.34001E+7 18195.3 0.00000288944 1.57411E-9 0.00000250107 1.46451E-9 30.0785 0.0330083
7341 3.33734E+7 18176.8 3.33734E+7 18176.8 0.00000292254 1.5918E-9 0.00000253111 1.48137E-9 30.0663 0.0330048
7342 3.33435E+7 18157.4 3.33435E+7 18157.4 0.00000295569 1.60958E-9 0.00000255975 1.49791E-9 30.0542 0.0330019
7343 3.32879E+7 18131.8 3.32879E+7 18131.8 0.00000298695 1.62701E-9 0.00000258605 1.5139E-9 30.042 0.0330061
7344 3.32612E+7 18114.3 3.32612E+7 18114.3 0.00000302113 1.64536E-9 0.000002616 1.53107E-9 30.0298 0.0330034
7345 3.32356E+7 18095.7 3.32356E+7 18095.7 0.00000305582 1.66383E-9 0.00000264596 1.54824E-9 30.0176 0.0329992
7346 3.31544E+7 18062.4 3.31544E+7 18062.4 0.00000308573 1.68113E-9 0.00000267225 1.56446E-9 30.0054 0.0330092
7347 3.31693E+7 18056.2 3.31693E+7 18056.2 0.00000312495 1.70116E-9 0.00000270696 1.58331E-9 29.9932 0.0329961
7348 3.31116E+7 18029.3 3.31116E+7 18029.3 0.00000315777 1.71945E-9 0.00000273451 1.60006E-9 29.981 0.0330002
7349 3.30649E+7 18006.1 3.30649E+7 18006.1 0.00000319196 1.73828E-9 0.0000027647 1.61777E-9 29.9689 0.0330023
7350 3.30462E+7 17990 3.30462E+7 17990 0.0000032293 1.75804E-9 0.00000279624 1.63592E-9 29.9567 0.0329968
7351 3.2991E+7 17963.6 3.2991E+7 17963.6 0.00000326343 1.77698E-9 0.00000282701 1.6539E-9 29.9445 0.0330002
7352 3.29165E+7 17933.2 3.29165E+7 17933.2 0.00000329595 1.79571E-9 0.00000285597 1.67157E-9 29.9323 0.0330095
7353 3.2903E+7 17918.5 3.2903E+7 17918.5 0.00000333499 1.81623E-9 0.00000289014 1.69077E-9 29.9201 0.0330028
7354 3.2882E+7 17901.8 3.2882E+7 17901.8 0.00000337374 1.83679E-9 0.00000292318 1.70976E-9 29.9079 0.0329979
7355 3.28336E+7 17877.6 3.28336E+7 17877.6 0.0000034101 1.85681E-9 0.00000295433 1.72827E-9 29.8957 0.0329999
7356 3.27789E+7 17852.1 3.27789E+7 17852.1 0.00000344612 1.87688E-9 0.00000298604 1.74709E-9 29.8836 0.0330039
7357 3.27284E+7 17827.5 3.27284E+7 17827.5 0.00000348298 1.89726E-9 0.00000301872 1.76631E-9 29.8714 0.0330066
7358 3.27113E+7 17812.1 3.27113E+7 17812.1 0.00000352387 1.91888E-9 0.00000305267 1.78596E-9 29.8592 0.0330009
7359 3.26521E+7 17784.9 3.26521E+7 17784.9 0.00000356059 1.93943E-9 0.00000308531 1.80535E-9 29.847 0.0330056
7360 3.26165E+7 17764.1 3.26165E+7 17764.1 0.00000360032 1.96091E-9 0.00000311982 1.82539E-9 29.8348 0.0330043
7361 3.25932E+7 17747.2 3.25932E+7 17747.2 0.00000364186 1.98306E-9 0.00000315689 1.8463E-9 29.8226 0.0330003
7362 3.25431E+7 17722.7 3.25431E+7 17722.7 0.00000368085 2.00461E-9 0.00000319079 1.86639E-9 29.8104 0.033003
7363 3.25044E+7 17701.3 3.25044E+7 17701.3 0.00000372154 2.02673E-9 0.00000322561 1.88687E-9 29.7983 0.0330027
7364 3.24558E+7 17677.3 3.24558E+7 17677.3 0.00000376153 2.0488E-9 0.0000032617 1.90784E-9 29.7861 0.033005
7365 3.24204E+7 17657 3.24204E+7 17657 0.0000038035 2.07153E-9 0.00000329961 1.92946E-9 29.7739 0.033004
7366 3.23629E+7 17630.7 3.23629E+7 17630.7 0.00000384329 2.0938E-9 0.00000333267 1.94977E-9 29.7617 0.0330087
7367 3.23602E+7 17618.8 3.23602E+7 17618.8 0.0000038901 2.11805E-9 0.00000337219 1.97204E-9 29.7495 0.032999
7368 3.23116E+7 17595.2 3.23116E+7 17595.2 0.00000393186 2.14114E-9 0.00000341061 1.99417E-9 29.7373 0.0330017
7369 3.2295E+7 17579.6 3.2295E+7 17579.6 0.00000397802 2.16546E-9 0.00000344884 2.01628E-9 29.7251 0.0329955
7370 3.22255E+7 17550.3 3.22255E+7 17550.3 0.00000401811 2.18835E-9 0.00000348457 2.03788E-9 29.713 0.0330035
7371 3.21894E+7 17529.4 3.21894E+7 17529.4 0.00000406281 2.21253E-9 0.00000352449 2.06074E-9 29.7008 0.0330023
7372 3.21372E+7 17504.5 3.21372E+7 17504.5 0.00000410599 2.2365E-9 0.00000356105 2.08281E-9 29.6886 0.0330057
7373 3.21365E+7 17493.4 3.21365E+7 17493.4 0.00000415622 2.26248E-9 0.00000360419 2.1069E-9 29.6764 0.0329955
7374 3.20795E+7 17467 3.20795E+7 17467 0.00000419969 2.28674E-9 0.00000364345 2.12991E-9 29.6642 0.0329999
7375 3.20326E+7 17443.7 3.20326E+7 17443.7 0.00000424498 2.3117E-9 0.0000036827 2.15315E-9 29.652 0.0330021
7376 3.19964E+7 17423.7 3.19964E+7 17423.7 0.00000429218 2.33737E-9 0.00000372356 2.17705E-9 29.6399 0.0330018
7377 3.19581E+7 17402.7 3.19581E+7 17402.7 0.00000433958 2.36315E-9 0.00000376438 2.20098E-9 29.6277 0.0330016
7378 3.18937E+7 17373.6 3.18937E+7 17373.6 0.00000438393 2.38813E-9 0.00000380425 2.22467E-9 29.6155 0.0330073
7379 3.18648E+7 17355.4 3.18648E+7 17355.4 0.00000443367 2.41488E-9 0.00000384777 2.24966E-9 29.6033 0.0330049
7380 3.18284E+7 17334.7 3.18284E+7 17334.7 0.00000448291 2.44158E-9 0.00000388976 2.27431E-9 29.5911 0.0330041
7381 3.17867E+7 17312.6 3.17867E+7 17312.6 0.0000045319 2.46836E-9 0.00000393289 2.29946E-9 29.5789 0.0330048
7382 3.17458E+7 17291.1 3.17458E+7 17291.1 0.00000458156 2.49552E-9 0.00000397683 2.32501E-9 29.5667 0.0330055
7383 3.17289E+7 17275.8 3.17289E+7 17275.8 0.00000463524 2.52387E-9 0.00000402355 2.35146E-9 29.5546 0.0329997
7384 3.16837E+7 17252.5 3.16837E+7 17252.5 0.00000468543 2.55139E-9 0.00000406737 2.37714E-9 29.5424 0.0330009
7385 3.16362E+7 17229.1 3.16362E+7 17229.1 0.00000473576 2.57916E-9 0.0000041112 2.40307E-9 29.5302 0.0330032
7386 3.16202E+7 17213.9 3.16202E+7 17213.9 0.00000479138 2.60846E-9 0.00000416061 2.43073E-9 29.518 0.032997
7387 3.15495E+7 17184.1 3.15495E+7 17184.1 0.00000483926 2.63586E-9 0.00000420128 2.45597E-9 29.5058 0.0330054
7388 3.15472E+7 17172.8 3.15472E+7 17172.8 0.00000489826 2.66645E-9 0.00000425186 2.48429E-9 29.4936 0.0329958
7389 3.14763E+7 17143.1 3.14763E+7 17143.1 0.00000494715 2.69446E-9 0.00000429496 2.51059E-9 29.4814 0.0330043
7390 3.14481E+7 17124.5 3.14481E+7 17124.5 0.00000500332 2.72453E-9 0.00000434367 2.53858E-9 29.4693 0.0330011
7391 3.14062E+7 17102.6 3.14062E+7 17102.6 0.0000050579 2.7544E-9 0.00000439228 2.56674E-9 29.4571 0.033002
7392 3.13921E+7 17088.7 3.13921E+7 17088.7 0.00000511679 2.78546E-9 0.0000044437 2.59577E-9 29.4451 0.0329961
7393 3.13321E+7 17061.4 3.13321E+7 17061.4 0.00000516259 2.81125E-9 0.00000448513 2.62034E-9 29.4342 0.0330012
7394 3.12892E+7 17039 3.12892E+7 17039 0.00000520518 2.8346E-9 0.00000452059 2.64163E-9 29.4246 0.0330021
7395 3.12757E+7 17024.6 3.12757E+7 17024.6 0.00000525196 2.85888E-9 0.00000456236 2.66462E-9 29.4153 0.0329952
7396 3.12098E+7 16996.7 3.12098E+7 16996.7 0.00000529042 2.88117E-9 0.00000459641 2.68555E-9 29.4059 0.033003
7397 3.11496E+7 16969.1 3.11496E+7 16969.1 0.00000533006 2.90364E-9 0.00000463111 2.70657E-9 29.3965 0.033008
7398 3.1149E+7 16958.5 3.1149E+7 16958.5 0.00000538019 2.92919E-9 0.00000467493 2.73049E-9 29.3871 0.0329981
7399 3.11119E+7 16937.6 3.11119E+7 16937.6 0.00000542451 2.95319E-9 0.00000471307 2.75274E-9 29.3777 0.0329973
7400 3.10388E+7 16907 3.10388E+7 16907 0.00000546285 2.97569E-9 0.00000474828 2.77428E-9 29.3683 0.0330064
7401 3.10138E+7 16890.1 3.10138E+7 16890.1 0.00000550995 3.00076E-9 0.00000478941 2.79769E-9 29.3589 0.0330031
7402 3.09822E+7 16870.9 3.09822E+7 16870.9 0.00000555629 3.02564E-9 0.00000482856 2.82056E-9 29.3495 0.0330012
7403 3.09347E+7 16847.4 3.09347E+7 16847.4 0.00000560013 3.04994E-9 0.00000486792 2.84357E-9 29.3401 0.0330035
7404 3.09208E+7 16832.6 3.09208E+7 16832.6 0.00000565046 3.07603E-9 0.00000491117 2.86772E-9 29.3307 0.0329964
7405 3.08441E+7 16801.9 3.08441E+7 16801.9 0.00000568962 3.09939E-9 0.00000494392 2.88913E-9 29.3213 0.0330073
7406 3.08474E+7 16793.1 3.08474E+7 16793.1 0.00000574393 3.12699E-9 0.00000499226 2.91521E-9 29.3119 0.0329969
7407 3.07891E+7 16766.9 3.07891E+7 16766.9 0.00000578719 3.15158E-9 0.00000503057 2.93835E-9 29.3025 0.0330023
7408 3.07634E+7 16750.2 3.07634E+7 16750.2 0.00000583691 3.17816E-9 0.00000507363 2.9631E-9 29.2931 0.0329997
7409 3.07145E+7 16726.3 3.07145E+7 16726.3 0.00000588265 3.20358E-9 0.0000051152 2.9873E-9 29.2837 0.0330023
7410 3.06708E+7 16704.6 3.06708E+7 16704.6 0.0000059297 3.22961E-9 0.00000515441 3.01109E-9 29.2744 0.0330044
7411 3.0633E+7 16684.3 3.0633E+7 16684.3 0.00000597832 3.25615E-9 0.00000519946 3.03666E-9 29.265 0.0330047
7412 3.06043E+7 16666.3 3.06043E+7 16666.3 0.00000602901 3.28328E-9 0.00000524078 3.06113E-9 29.2556 0.0330023
7413 3.05635E+7 16645.3 3.05635E+7 16645.3 0.00000607784 3.31013E-9 0.0000052875 3.08743E-9 29.2462 0.0330036
7414 3.05163E+7 16622.2 3.05163E+7 16622.2 0.00000612571 3.33671E-9 0.00000532418 3.11076E-9 29.2368 0.0330061
7415 3.05176E+7 16612.8 3.05176E+7 16612.8 0.00000618382 3.36632E-9 0.00000537796 3.13935E-9 29.2274 0.0329961
7416 3.04528E+7 16585.9 3.04528E+7 16585.9 0.00000622892 3.39259E-9 0.00000541547 3.16333E-9 29.218 0.0330045
7417 3.04236E+7 16567.3 3.04236E+7 16567.3 0.00000628167 3.42075E-9 0.00000546533 3.19074E-9 29.2086 0.0330017
7418 3.03912E+7 16548.5 3.03912E+7 16548.5 0.00000633418 3.4491E-9 0.00000551105 3.2172E-9 29.1992 0.0330006
7419 3.03318E+7 16522.7 3.03318E+7 16522.7 0.00000638146 3.47623E-9 0.00000555046 3.24202E-9 29.1898 0.0330071
7420 3.03192E+7 16509.2 3.03192E+7 16509.2 0.00000643902 3.50618E-9 0.00000560117 3.27014E-9 29.1804 0.0330005
7421 3.02571E+7 16482.4 3.02571E+7 16482.4 0.00000648649 3.53352E-9 0.00000564328 3.29586E-9 29.171 0.0330075
7422 3.02296E+7 16464.6 3.02296E+7 16464.6 0.00000654175 3.56303E-9 0.00000569276 3.32376E-9 29.1616 0.0330047
7423 3.01965E+7 16446.2 3.01965E+7 16446.2 0.00000659621 3.59261E-9 0.00000573648 3.3503E-9 29.1523 0.0330044
7424 3.01601E+7 16426.3 3.01601E+7 16426.3 0.00000665046 3.62213E-9 0.00000578629 3.37862E-9 29.1429 0.0330042
7425 3.01261E+7 16407.1 3.01261E+7 16407.1 0.00000670566 3.65206E-9 0.00000583491 3.40671E-9 29.1335 0.0330036
7426 3.00742E+7 16382.8 3.00742E+7 16382.8 0.00000675731 3.68106E-9 0.00000587949 3.43364E-9 29.1241 0.0330075
7427 3.00723E+7 16372.1 3.00723E+7 16372.1 0.00000682062 3.71337E-9 0.00000593677 3.46445E-9 29.1147 0.0329978
7428 3.00425E+7 16354.4 3.00425E+7 16354.4 0.00000687815 3.74434E-9 0.00000598698 3.49337E-9 29.1053 0.0329963
7429 2.99741E+7 16325.5 2.99741E+7 16325.5 0.0000069273 3.77302E-9 0.00000602998 3.52017E-9 29.0959 0.0330047
7430 2.99613E+7 16312.5 2.99613E+7 16312.5 0.0000069897 3.8056E-9 0.0000060837 3.55041E-9 29.0865 0.0329986
7431 2.99066E+7 16287.2 2.99066E+7 16287.2 0.00000704278 3.83556E-9 0.00000612964 3.57829E-9 29.0771 0.0330032
7432 2.98363E+7 16258.5 2.98363E+7 16258.5 0.00000709252 3.86492E-9 0.00000617325 3.60579E-9 29.0677 0.0330129
7433 2.98462E+7 16251.3 2.98462E+7 16251.3 0.00000716184 3.89969E-9 0.00000623726 3.63929E-9 29.0583 0.0330002
7434 2.97927E+7 16227 2.97927E+7 16227 0.00000721645 3.9306E-9 0.00000628473 3.66812E-9 29.0489 0.0330051
7435 2.97782E+7 16213.2 2.97782E+7 16213.2 0.000007281 3.9643E-9 0.00000633857 3.69889E-9 29.0395 0.032999
7436 2.97181E+7 16186.6 2.97181E+7 16186.6 0.00000733489 3.99515E-9 0.00000638657 3.72799E-9 29.0301 0.0330053
7437 2.96776E+7 16166.1 2.96776E+7 16166.1 0.00000739402 4.02776E-9 0.00000643981 3.75889E-9 29.0207 0.0330069
7438 2.96722E+7 16154.8 2.96722E+7 16154.8 0.00000746247 4.06294E-9 0.00000649947 3.79175E-9 29.0113 0.0329984
7439 2.96451E+7 16137.6 2.96451E+7 16137.6 0.00000752599 4.09691E-9 0.00000655138 3.82245E-9 29.002 0.0329959
7440 2.95894E+7 16112.3 2.95894E+7 16112.3 0.00000758273 4.12908E-9 0.00000660411 3.85344E-9 28.9926 0.033001
7441 2.95668E+7 16096.4 2.95668E+7 16096.4 0.00000764844 4.16393E-9 0.00000666051 3.88567E-9 28.9832 0.0329973
7442 2.95115E+7 16071.3 2.95115E+7 16071.3 0.00000770624 4.19671E-9 0.00000671022 3.91608E-9 28.9738 0.0330025
7443 2.94854E+7 16054.6 2.94854E+7 16054.6 0.00000777209 4.23192E-9 0.00000676942 3.94953E-9 28.9644 0.033
7444 2.94359E+7 16031 2.94359E+7 16031 0.0000078322 4.26554E-9 0.00000682541 3.982E-9 28.955 0.0330034
7445 2.93838E+7 16007.2 2.93838E+7 16007.2 0.00000789214 4.29942E-9 0.00000687544 4.01293E-9 28.9456 0.0330081
7446 2.93681E+7 15993.5 2.93681E+7 15993.5 0.00000796241 4.33629E-9 0.00000693659 4.0473E-9 28.9362 0.0330028
7447 2.9327E+7 15972.3 2.9327E+7 15972.3 0.00000802628 4.3714E-9 0.0000069929 4.08031E-9 28.9268 0.033004
7448 2.92896E+7 15952.4 2.92896E+7 15952.4 0.00000809171 4.40715E-9 0.00000705218 4.11436E-9 28.9174 0.0330045
7449 2.92517E+7 15931.8 2.92517E+7 15931.8 0.00000815753 4.44303E-9 0.00000711203 4.1486E-9 28.908 0.0330045
7450 2.92434E+7 15920.3 2.92434E+7 15920.3 0.00000823216 4.48171E-9 0.0000071733 4.18358E-9 28.8986 0.0329973
7451 2.9172E+7 15890.1 2.9172E+7 15890.1 0.00000828959 4.51543E-9 0.00000722591 4.21578E-9 28.8892 0.0330063
7452 2.91453E+7 15873.9 2.91453E+7 15873.9 0.00000836014 4.55338E-9 0.00000728736 4.25124E-9 28.8798 0.0330046
7453 2.90812E+7 15846.6 2.90812E+7 15846.6 0.00000842043 4.58843E-9 0.00000733893 4.28361E-9 28.8705 0.0330125
7454 2.90694E+7 15833.6 2.90694E+7 15833.6 0.00000849645 4.62792E-9 0.0000074061 4.32076E-9 28.8611 0.0330056
7455 2.90298E+7 15812.9 2.90298E+7 15812.9 0.00000856496 4.66549E-9 0.00000746683 4.35618E-9 28.8517 0.0330065
7456 2.9E+7 15795.5 2.9E+7 15795.5 0.00000863692 4.70437E-9 0.0000075312 4.39294E-9 28.8423 0.0330054
7457 2.89625E+7 15775.1 2.89625E+7 15775.1 0.00000870716 4.74261E-9 0.00000759261 4.4287E-9 28.8329 0.0330053
7458 2.89379E+7 15759.1 2.89379E+7 15759.1 0.00000878188 4.78253E-9 0.00000765719 4.4658E-9 28.8235 0.0330026
7459 2.8898E+7 15738.7 2.8898E+7 15738.7 0.00000885253 4.82143E-9 0.00000772006 4.50249E-9 28.8141 0.0330041
7460 2.88551E+7 15716.7 2.88551E+7 15716.7 0.00000892283 4.86013E-9 0.00000778058 4.53836E-9 28.8047 0.0330055
7461 2.88504E+7 15705.9 2.88504E+7 15705.9 0.00000900556 4.90261E-9 0.00000785413 4.5785E-9 28.7953 0.0329968
7462 2.8775E+7 15675.4 2.8775E+7 15675.4 0.00000906679 4.93929E-9 0.00000790916 4.61322E-9 28.7859 0.033008
7463 2.87351E+7 15655.1 2.87351E+7 15655.1 0.00000913967 4.97943E-9 0.00000797048 4.65001E-9 28.7765 0.0330094
7464 2.87186E+7 15641.4 2.87186E+7 15641.4 0.0000092206 5.02202E-9 0.00000804482 4.69089E-9 28.7671 0.0330045
7465 2.86996E+7 15625.7 2.86996E+7 15625.7 0.00000930154 5.06436E-9 0.00000811064 4.72907E-9 28.7577 0.0329988
7466 2.86358E+7 15599 2.86358E+7 15599 0.00000936838 5.10338E-9 0.00000817187 4.76637E-9 28.7483 0.0330073
7467 2.85878E+7 15576.2 2.85878E+7 15576.2 0.00000944094 5.144E-9 0.00000823635 4.80464E-9 28.7389 0.0330108
7468 2.85799E+7 15564.3 2.85799E+7 15564.3 0.00000952746 5.18861E-9 0.00000831037 4.84589E-9 28.7295 0.0330028
7469 2.85462E+7 15546 2.85462E+7 15546 0.00000960599 5.23141E-9 0.00000837931 4.88601E-9 28.7202 0.0330029
7470 2.85134E+7 15526.8 2.85134E+7 15526.8 0.00000968556 5.27428E-9 0.00000844773 4.92571E-9 28.7108 0.0330014
7471 2.84951E+7 15512.3 2.84951E+7 15512.3 0.00000977064 5.31907E-9 0.00000852092 4.96726E-9 28.7014 0.0329966
7472 2.84283E+7 15484.6 2.84283E+7 15484.6 0.00000983974 5.35967E-9 0.00000858327 5.00572E-9 28.692 0.0330058
7473 2.83854E+7 15463 2.83854E+7 15463 0.00000991758 5.40272E-9 0.00000865222 5.04633E-9 28.6826 0.0330078
7474 2.83486E+7 15443.5 2.83486E+7 15443.5 0.00000999823 5.44682E-9 0.00000872683 5.08876E-9 28.6732 0.0330083
7475 2.83334E+7 15429.2 2.83334E+7 15429.2 0.0000100872 5.49313E-9 0.00000880333 5.13164E-9 28.6638 0.0330019
7476 2.82674E+7 15402.6 2.82674E+7 15402.6 0.0000101586 5.53539E-9 0.00000886928 5.17219E-9 28.6544 0.0330119
7477 2.826E+7 15390.7 2.826E+7 15390.7 0.0000102518 5.58332E-9 0.00000894864 5.21638E-9 28.645 0.0330034
7478 2.82144E+7 15368 2.82144E+7 15368 0.0000103319 5.62773E-9 0.00000901842 5.25778E-9 28.6356 0.0330058
7479 2.81815E+7 15350 2.81815E+7 15350 0.0000104172 5.67419E-9 0.0000090968 5.30248E-9 28.6262 0.0330057
7480 2.81412E+7 15329.8 2.81412E+7 15329.8 0.0000105005 5.72018E-9 0.00000916259 5.34337E-9 28.6168 0.0330076
7481 2.8112E+7 15311.8 2.8112E+7 15311.8 0.0000105886 5.76738E-9 0.0000092455 5.38925E-9 28.6074 0.0330053
7482 2.80627E+7 15288.8 2.80627E+7 15288.8 0.0000106698 5.81306E-9 0.00000931525 5.43157E-9 28.598 0.0330094
7483 2.80228E+7 15268.1 2.80228E+7 15268.1 0.0000107552 5.86E-9 0.00000938765 5.4747E-9 28.5887 0.0330106
7484 2.80066E+7 15254.2 2.80066E+7 15254.2 0.0000108504 5.90992E-9 0.00000947663 5.52315E-9 28.5793 0.0330051
7485 2.79772E+7 15236.9 2.79772E+7 15236.9 0.0000109413 5.95894E-9 0.00000955356 5.56823E-9 28.5699 0.0330038
7486 2.79486E+7 15219.5 2.79486E+7 15219.5 0.0000110333 6.0083E-9 0.00000963588 5.61492E-9 28.5605 0.0330017
7487 2.78991E+7 15196.5 2.78991E+7 15196.5 0.0000111177 6.05581E-9 0.00000970961 5.65932E-9 28.5511 0.033006
7488 2.78837E+7 15182.4 2.78837E+7 15182.4 0.0000112164 6.10731E-9 0.00000979089 5.70601E-9 28.5417 0.0329998
7489 2.78161E+7 15154.7 2.78161E+7 15154.7 0.0000112948 6.15371E-9 0.00000986698 5.75161E-9 28.5323 0.0330097
7490 2.7789E+7 15137.7 2.7789E+7 15137.7 0.0000113903 6.20479E-9 0.00000994835 5.79881E-9 28.5229 0.0330073
7491 2.77573E+7 15119.5 2.77573E+7 15119.5 0.0000114846 6.25582E-9 0.0000100322 5.84685E-9 28.5135 0.0330063
7492 2.77312E+7 15102.5 2.77312E+7 15102.5 0.0000115822 6.30776E-9 0.0000101169 5.89528E-9 28.5041 0.0330032
7493 2.76732E+7 15077.8 2.76732E+7 15077.8 0.000011667 6.35687E-9 0.0000101898 5.94083E-9 28.4947 0.0330108
7494 2.76402E+7 15059.1 2.76402E+7 15059.1 0.0000117631 6.4089E-9 0.0000102755 5.99001E-9 28.4853 0.03301
7495 2.76218E+7 15044.8 2.76218E+7 15044.8 0.0000118661 6.46322E-9 0.0000103675 6.04131E-9 28.4759 0.0330053
7496 2.75723E+7 15021.9 2.75723E+7 15021.9 0.0000119568 6.51434E-9 0.0000104479 6.08948E-9 28.4665 0.0330097
7497 2.75415E+7 15004 2.75415E+7 15004 0.0000120561 6.56796E-9 0.0000105357 6.13987E-9 28.4571 0.0330085
7498 2.74975E+7 14981.7 2.74975E+7 14981.7 0.0000121504 6.62008E-9 0.0000106165 6.18811E-9 28.4478 0.0330103
7499 2.74864E+7 14970.1 2.74864E+7 14970.1 0.0000122601 6.6774E-9 0.0000107109 6.24127E-9 28.4384 0.0330042
7500 2.74288E+7 14944.3 2.74288E+7 14944.3 0.0000123499 6.7288E-9 0.0000107934 6.29048E-9 28.429 0.0330104
7501 2.73981E+7 14926.5 2.73981E+7 14926.5 0.0000124525 6.7842E-9 0.0000108842 6.34264E-9 28.4196 0.0330092
7502 2.73742E+7 14910.8 2.73742E+7 14910.8 0.000012559 6.84103E-9 0.0000109776 6.39587E-9 28.4102 0.0330063
7503 2.73269E+7 14888.4 2.73269E+7 14888.4 0.0000126557 6.89523E-9 0.0000110655 6.44742E-9 28.4008 0.0330099
7504 2.73273E+7 14879.2 2.73273E+7 14879.2 0.0000127753 6.956E-9 0.0000111657 6.50305E-9 28.3914 0.0329995
7505 2.72662E+7 14853 2.72662E+7 14853 0.000012867 7.00927E-9 0.0000112507 6.55431E-9 28.382 0.0330074
7506 2.72363E+7 14835.2 2.72363E+7 14835.2 0.0000129742 7.06695E-9 0.0000113423 6.60751E-9 28.3726 0.0330058
7507 2.71988E+7 14815.5 2.71988E+7 14815.5 0.0000130786 7.12416E-9 0.0000114414 6.66341E-9 28.3632 0.0330066
7508 2.71522E+7 14794.1 2.71522E+7 14794.1 0.0000131794 7.18099E-9 0.0000115245 6.71507E-9 28.3538 0.0330109
7509 2.71164E+7 14774.3 2.71164E+7 14774.3 0.0000132863 7.23909E-9 0.000011616 6.76878E-9 28.3444 0.0330106
7510 2.71086E+7 14763.4 2.71086E+7 14763.4 0.0000134079 7.30203E-9 0.0000117224 6.82777E-9 28.335 0.0330031
7511 2.70843E+7 14747.1 2.70843E+7 14747.1 0.0000135222 7.36276E-9 0.0000118254 6.88534E-9 28.3256 0.0329998
7512 2.70475E+7 14727.2 2.70475E+7 14727.2 0.0000136313 7.42228E-9 0.0000119221 6.94143E-9 28.3162 0.033
7513 2.69866E+7 14701.2 2.69866E+7 14701.2 0.0000137289 7.47903E-9 0.0000120058 6.994E-9 28.3069 0.033008
7514 2.69573E+7 14684.3 2.69573E+7 14684.3 0.0000138435 7.54098E-9 0.0000121071 7.0523E-9 28.2975 0.0330069
7515 2.69436E+7 14671.5 2.69436E+7 14671.5 0.000013967 7.6055E-9 0.0000122183 7.11356E-9 28.2881 0.0330009
7516 2.68898E+7 14647.7 2.68898E+7 14647.7 0.0000140707 7.66484E-9 0.000012307 7.16841E-9 28.2787 0.0330071
7517 2.68609E+7 14631.1 2.68609E+7 14631.1 0.0000141882 7.7284E-9 0.0000124089 7.22761E-9 28.2693 0.0330062
7518 2.68361E+7 14615.6 2.68361E+7 14615.6 0.0000143089 7.79309E-9 0.0000125188 7.28934E-9 28.2599 0.0330039
7519 2.68001E+7 14596.6 2.68001E+7 14596.6 0.0000144247 7.85645E-9 0.0000126189 7.34829E-9 28.2505 0.0330046
7520 2.67452E+7 14572.9 2.67452E+7 14572.9 0.0000145309 7.91768E-9 0.000012717 7.407E-9 28.2411 0.0330116
7521 2.67417E+7 14562.7 2.67417E+7 14562.7 0.0000146661 7.98681E-9 0.0000128319 7.47078E-9 28.2317 0.0330022
7522 2.66791E+7 14537.1 2.66791E+7 14537.1 0.0000147698 8.04795E-9 0.0000129204 7.52725E-9 28.2223 0.0330118
7523 2.66586E+7 14525.3 2.66586E+7 14525.3 0.0000148977 8.11738E-9 0.000013038 7.5937E-9 28.2129 0.0330112
7524 2.65379E+7 14507.9 2.65379E+7 14507.9 0.0000149699 8.1841E-9 0.0000131063 7.65672E-9 28.2036 0.0330664
7525 2.60388E+7 14504.9 2.60388E+7 14504.9 0.0000148259 8.25972E-9 0.0000129824 7.72642E-9 28.1942 0.0333791
7526 2.43655E+7 14504.1 2.43655E+7 14504.1 0.0000140012 8.33725E-9 0.0000122657 7.80003E-9 28.185 0.0345071
7527 1.9855E+7 14412.4 1.9855E+7 14412.4 0.000011509 8.36199E-9 0.0000100777 7.82338E-9 28.1763 0.0381109
7528 1.33867E+7 13836.4 1.33867E+7 13836.4 0.00000783068 8.10146E-9 0.00000684187 7.57515E-9 28.1672 0.0454772
7529 1.40824E+7 13829.1 1.40824E+7 13829.1 0.00000833983 8.18017E-9 0.00000729224 7.65115E-9 28.1549 0.0443043
7530 2.05941E+7 14392.3 2.05941E+7 14392.3 0.0000123021 8.59013E-9 0.000010783 8.04019E-9 28.1463 0.0373781
7531 2.44625E+7 14407.2 2.44625E+7 14407.2 0.0000147417 8.67965E-9 0.0000129213 8.12246E-9 28.1375 0.0343181
7532 2.58886E+7 14374.9 2.58886E+7 14374.9 0.0000157451 8.74189E-9 0.0000137926 8.1792E-9 28.1283 0.0333238
7533 2.62606E+7 14347.3 2.62606E+7 14347.3 0.0000161209 8.80753E-9 0.0000141191 8.24164E-9 28.119 0.0330558
7534 2.63032E+7 14329.5 2.63032E+7 14329.5 0.0000162992 8.8796E-9 0.0000142744 8.30957E-9 28.1096 0.0330086
7535 2.62543E+7 14305.5 2.62543E+7 14305.5 0.0000164224 8.94842E-9 0.0000143862 8.37535E-9 28.1002 0.0330117
7536 2.62267E+7 14288.7 2.62267E+7 14288.7 0.00001656 9.02227E-9 0.000014501 8.44276E-9 28.0908 0.0330097
7537 2.61913E+7 14270.3 2.61913E+7 14270.3 0.0000166936 9.09558E-9 0.0000146163 8.51082E-9 28.0814 0.0330106
7538 2.61609E+7 14253.4 2.61609E+7 14253.4 0.0000168316 9.17055E-9 0.0000147415 8.58233E-9 28.072 0.0330102
7539 2.61405E+7 14238.8 2.61405E+7 14238.8 0.0000169774 9.24771E-9 0.0000148741 8.65609E-9 28.0626 0.0330062
7540 2.6117E+7 14223.6 2.6117E+7 14223.6 0.0000171221 9.32506E-9 0.0000149959 8.72681E-9 28.0532 0.0330035
7541 2.60619E+7 14199.4 2.60619E+7 14199.4 0.0000172472 9.39696E-9 0.0000151099 8.79551E-9 28.0438 0.0330102
7542 2.60555E+7 14189.3 2.60555E+7 14189.3 0.0000174057 9.47897E-9 0.0000152453 8.8712E-9 28.0344 0.0330026
7543 2.59996E+7 14164.9 2.59996E+7 14164.9 0.0000175323 9.55196E-9 0.0000153531 8.93865E-9 28.0251 0.0330096
7544 2.5954E+7 14143.8 2.5954E+7 14143.8 0.0000176667 9.62768E-9 0.0000154798 9.01207E-9 28.0157 0.0330139
7545 2.59518E+7 14134.4 2.59518E+7 14134.4 0.0000178319 9.71208E-9 0.0000156239 9.09093E-9 28.0063 0.0330043
7546 2.59284E+7 14119.2 2.59284E+7 14119.2 0.000017984 9.79322E-9 0.0000157568 9.1668E-9 27.9969 0.0330015
7547 2.5883E+7 14097.8 2.5883E+7 14097.8 0.0000181219 9.87069E-9 0.0000158806 9.24006E-9 27.9875 0.0330054
7548 2.58507E+7 14080.4 2.58507E+7 14080.4 0.0000182701 9.95152E-9 0.0000160167 9.31762E-9 27.9781 0.0330056
7549 2.58217E+7 14064 2.58217E+7 14064 0.0000184218 1.00337E-8 0.0000161406 9.39192E-9 27.9687 0.0330049
7550 2.57901E+7 14046.3 2.57901E+7 14046.3 0.0000185729 1.01156E-8 0.0000162768 9.46971E-9 27.9593 0.0330043
7551 2.57629E+7 14030.3 2.57629E+7 14030.3 0.0000187285 1.01995E-8 0.000016416 9.54912E-9 27.9499 0.0330029
7552 2.5713E+7 14007.7 2.5713E+7 14007.7 0.0000188686 1.02792E-8 0.0000165394 9.62383E-9 27.9405 0.0330083
7553 2.56752E+7 13988.4 2.56752E+7 13988.4 0.0000190185 1.03618E-8 0.0000166737 9.70203E-9 27.9311 0.0330098
7554 2.56447E+7 13971.8 2.56447E+7 13971.8 0.0000191752 1.04473E-8 0.0000168077 9.78113E-9 27.9217 0.0330099
7555 2.56157E+7 13955 2.56157E+7 13955 0.0000193343 1.05331E-8 0.0000169535 9.86321E-9 27.9123 0.0330087
7556 2.55979E+7 13941.4 2.55979E+7 13941.4 0.0000195033 1.06222E-8 0.0000170997 9.94622E-9 27.903 0.0330041
7557 2.55259E+7 13912.8 2.55259E+7 13912.8 0.0000196319 1.07005E-8 0.0000172173 1.00209E-8 27.8936 0.0330167
7558 2.55333E+7 13906.2 2.55333E+7 13906.2 0.000019823 1.07963E-8 0.0000173831 1.01101E-8 27.8842 0.0330041
7559 2.55024E+7 13889 2.55024E+7 13889 0.0000199859 1.08848E-8 0.0000175303 1.01942E-8 27.8748 0.0330037
7560 2.54667E+7 13870.8 2.54667E+7 13870.8 0.0000201462 1.09731E-8 0.0000176686 1.02763E-8 27.8654 0.0330051
7561 2.54469E+7 13857.5 2.54469E+7 13857.5 0.0000203207 1.1066E-8 0.0000178221 1.03635E-8 27.856 0.033002
7562 2.5398E+7 13836.6 2.5398E+7 13836.6 0.0000204728 1.11536E-8 0.0000179553 1.04452E-8 27.8466 0.0330089
7563 2.53449E+7 13814.7 2.53449E+7 13814.7 0.000020623 1.12411E-8 0.0000180864 1.05271E-8 27.8372 0.0330174
7564 2.53129E+7 13798.4 2.53129E+7 13798.4 0.0000207912 1.13337E-8 0.0000182346 1.0614E-8 27.8278 0.0330186
7565 2.53254E+7 13794.2 2.53254E+7 13794.2 0.0000209978 1.14372E-8 0.0000184255 1.07138E-8 27.8184 0.0330055
7566 2.53066E+7 13781.5 2.53066E+7 13781.5 0.0000211802 1.15345E-8 0.0000185841 1.08045E-8 27.809 0.0330026
7567 2.52681E+7 13763.5 2.52681E+7 13763.5 0.0000213476 1.16282E-8 0.0000187284 1.08916E-8 27.7996 0.0330062
7568 2.52286E+7 13745.3 2.52286E+7 13745.3 0.0000215153 1.17224E-8 0.0000188803 1.09811E-8 27.7902 0.0330101
7569 2.52126E+7 13733.2 2.52126E+7 13733.2 0.0000217046 1.18226E-8 0.0000190415 1.10735E-8 27.7808 0.033006
7570 2.5175E+7 13715.1 2.5175E+7 13715.1 0.0000218768 1.19184E-8 0.0000191945 1.11639E-8 27.7714 0.0330089
7571 2.51711E+7 13707.1 2.51711E+7 13707.1 0.0000220798 1.20239E-8 0.0000193784 1.12644E-8 27.7621 0.0330018
7572 2.512E+7 13685.2 2.512E+7 13685.2 0.0000222432 1.21181E-8 0.0000195206 1.13523E-8 27.7526 0.033009
7573 2.51002E+7 13672.5 2.51002E+7 13672.5 0.0000224353 1.2221E-8 0.000019689 1.14486E-8 27.7433 0.0330067
7574 2.50696E+7 13656.3 2.50696E+7 13656.3 0.0000226195 1.23218E-8 0.000019849 1.15425E-8 27.7339 0.0330073
7575 2.50394E+7 13640.2 2.50394E+7 13640.2 0.0000228053 1.24234E-8 0.0000200153 1.16388E-8 27.7245 0.0330077
7576 2.50125E+7 13625.7 2.50125E+7 13625.7 0.0000229959 1.25273E-8 0.0000201897 1.17381E-8 27.7151 0.0330078
7577 2.49839E+7 13610.6 2.49839E+7 13610.6 0.0000231864 1.26315E-8 0.0000203599 1.18367E-8 27.7057 0.0330084
7578 2.49796E+7 13601.9 2.49796E+7 13601.9 0.0000234011 1.27426E-8 0.0000205454 1.19399E-8 27.6963 0.0330008
7579 2.49413E+7 13584 2.49413E+7 13584 0.0000235857 1.28459E-8 0.0000207033 1.20355E-8 27.6869 0.0330043
7580 2.49046E+7 13566.1 2.49046E+7 13566.1 0.0000237736 1.29502E-8 0.0000208819 1.2137E-8 27.6775 0.0330068
7581 2.48734E+7 13550.3 2.48734E+7 13550.3 0.0000239675 1.3057E-8 0.0000210449 1.22351E-8 27.6681 0.0330084
7582 2.48734E+7 13542.8 2.48734E+7 13542.8 0.0000241937 1.31729E-8 0.000021243 1.23435E-8 27.6587 0.0329992
7583 2.48376E+7 13525.6 2.48376E+7 13525.6 0.000024387 1.32804E-8 0.0000214166 1.24455E-8 27.6493 0.033002
7584 2.47936E+7 13505.9 2.47936E+7 13505.9 0.0000245734 1.33861E-8 0.000021588 1.25467E-8 27.6399 0.0330072
7585 2.47729E+7 13492.8 2.47729E+7 13492.8 0.0000247847 1.34994E-8 0.0000217698 1.26518E-8 27.6305 0.0330049
7586 2.47454E+7 13477.8 2.47454E+7 13477.8 0.0000249908 1.36117E-8 0.0000219435 1.27548E-8 27.6212 0.033005
7587 2.47074E+7 13460.1 2.47074E+7 13460.1 0.000025188 1.37221E-8 0.0000221176 1.28585E-8 27.6118 0.0330086
7588 2.46879E+7 13447 2.46879E+7 13447 0.0000254057 1.38382E-8 0.0000223207 1.29707E-8 27.6024 0.0330056
7589 2.46666E+7 13433.6 2.46666E+7 13433.6 0.0000256232 1.39547E-8 0.0000225086 1.3079E-8 27.593 0.0330033
7590 2.46138E+7 13412 2.46138E+7 13412 0.0000258099 1.40639E-8 0.0000226674 1.318E-8 27.5836 0.0330121
7591 2.45844E+7 13396.6 2.45844E+7 13396.6 0.0000260221 1.41802E-8 0.0000228585 1.32904E-8 27.5742 0.0330129
7592 2.45764E+7 13387.1 2.45764E+7 13387.1 0.0000262591 1.43038E-8 0.0000230666 1.34062E-8 27.5648 0.0330065
7593 2.45426E+7 13370.1 2.45426E+7 13370.1 0.0000264705 1.44206E-8 0.0000232527 1.35157E-8 27.5554 0.0330084
7594 2.45231E+7 13357.2 2.45231E+7 13357.2 0.0000266992 1.45427E-8 0.0000234585 1.36316E-8 27.546 0.0330055
7595 2.44984E+7 13342.9 2.44984E+7 13342.9 0.0000269239 1.46641E-8 0.0000236624 1.37472E-8 27.5366 0.0330044
7596 2.44602E+7 13325.2 2.44602E+7 13325.2 0.0000271357 1.47829E-8 0.0000238414 1.38565E-8 27.5272 0.0330083
7597 2.44416E+7 13313 2.44416E+7 13313 0.000027371 1.49088E-8 0.0000240507 1.39753E-8 27.5178 0.0330058
7598 2.4412E+7 13297.3 2.4412E+7 13297.3 0.0000275956 1.50316E-8 0.0000242494 1.40908E-8 27.5084 0.0330063
7599 2.44071E+7 13288.5 2.44071E+7 13288.5 0.0000278507 1.51636E-8 0.0000244704 1.42135E-8 27.499 0.0329986
7600 2.43598E+7 13268.1 2.43598E+7 13268.1 0.000028059 1.52831E-8 0.0000246601 1.43276E-8 27.4896 0.0330053
7601 2.43092E+7 13246.5 2.43092E+7 13246.5 0.0000282648 1.54022E-8 0.0000248408 1.44392E-8 27.4803 0.0330127
7602 2.42808E+7 13231.6 2.42808E+7 13231.6 0.0000284982 1.55301E-8 0.0000250423 1.45579E-8 27.4709 0.0330135
7603 2.42775E+7 13223.6 2.42775E+7 13223.6 0.0000287633 1.56672E-8 0.0000252826 1.46887E-8 27.4615 0.0330057
7604 2.42674E+7 13213.4 2.42674E+7 13213.4 0.0000290227 1.58029E-8 0.0000255154 1.48173E-8 27.4521 0.0329999
7605 2.42125E+7 13191.1 2.42125E+7 13191.1 0.0000292303 1.5925E-8 0.0000256981 1.49318E-8 27.4427 0.0330093
7606 2.42124E+7 13183.1 2.42124E+7 13183.1 0.0000295061 1.60657E-8 0.0000259436 1.50647E-8 27.4333 0.0329995
7607 2.4156E+7 13160.9 2.4156E+7 13160.9 0.0000297152 1.61899E-8 0.0000261255 1.51806E-8 27.4239 0.0330101
7608 2.41222E+7 13144.1 2.41222E+7 13144.1 0.0000299536 1.63219E-8 0.0000263376 1.53051E-8 27.4145 0.0330122
7609 2.41207E+7 13136.4 2.41207E+7 13136.4 0.0000302346 1.64663E-8 0.0000265898 1.54419E-8 27.4051 0.0330034
7610 2.40708E+7 13115.3 2.40708E+7 13115.3 0.0000304566 1.65949E-8 0.0000267882 1.55635E-8 27.3957 0.0330111
7611 2.40591E+7 13104.4 2.40591E+7 13104.4 0.0000307293 1.67377E-8 0.0000270373 1.57001E-8 27.3863 0.0330055
7612 2.40156E+7 13085.3 2.40156E+7 13085.3 0.0000309631 1.68711E-8 0.0000272422 1.58249E-8 27.3769 0.0330113
7613 2.3993E+7 13071.2 2.3993E+7 13071.2 0.0000312259 1.70119E-8 0.0000274658 1.59549E-8 27.3675 0.033009
7614 2.3971E+7 13058.4 2.3971E+7 13058.4 0.0000314917 1.71556E-8 0.0000277012 1.609E-8 27.3581 0.033008
7615 2.39514E+7 13045.2 2.39514E+7 13045.2 0.0000317629 1.73001E-8 0.000027943 1.62266E-8 27.3487 0.0330048
7616 2.39205E+7 13029.5 2.39205E+7 13029.5 0.0000320215 1.74423E-8 0.0000281637 1.6358E-8 27.3393 0.0330061
7617 2.39049E+7 13018.3 2.39049E+7 13018.3 0.0000323024 1.75917E-8 0.0000284286 1.65031E-8 27.33 0.0330027
7618 2.38694E+7 13001.1 2.38694E+7 13001.1 0.0000325589 1.77344E-8 0.0000286495 1.66355E-8 27.3206 0.0330055
7619 2.38462E+7 12987.5 2.38462E+7 12987.5 0.0000328342 1.78829E-8 0.0000288996 1.67772E-8 27.3112 0.0330042
7620 2.38196E+7 12972.9 2.38196E+7 12972.9 0.0000331071 1.80314E-8 0.0000291252 1.69122E-8 27.3018 0.0330041
7621 2.37752E+7 12953.2 2.37752E+7 12953.2 0.0000333573 1.81739E-8 0.0000293651 1.70518E-8 27.2924 0.0330098
7622 2.37289E+7 12933.5 2.37289E+7 12933.5 0.0000336064 1.83175E-8 0.000029571 1.71826E-8 27.283 0.0330168
7623 2.3723E+7 12924.3 2.3723E+7 12924.3 0.0000339152 1.84774E-8 0.0000298476 1.73341E-8 27.2736 0.0330093
7624 2.36919E+7 12908.8 2.36919E+7 12908.8 0.0000341905 1.86294E-8 0.0000300884 1.74761E-8 27.2642 0.0330111
7625 2.36774E+7 12898.2 2.36774E+7 12898.2 0.0000344919 1.87897E-8 0.0000303633 1.76294E-8 27.2548 0.0330076
7626 2.36234E+7 12876.4 2.36234E+7 12876.4 0.000034738 1.89349E-8 0.0000305783 1.77652E-8 27.2454 0.0330173
7627 2.36211E+7 12868.9 2.36211E+7 12868.9 0.0000350626 1.91025E-8 0.0000308685 1.79235E-8 27.236 0.0330093
7628 2.36169E+7 12860.6 2.36169E+7 12860.6 0.0000353873 1.92705E-8 0.0000311479 1.80793E-8 27.2266 0.0330017
7629 2.35944E+7 12847.6 2.35944E+7 12847.6 0.0000356872 1.94327E-8 0.000031415 1.82322E-8 27.2172 0.0330007
7630 2.354E+7 12826 2.354E+7 12826 0.0000359407 1.95829E-8 0.0000316371 1.83728E-8 27.2078 0.033011
7631 2.35155E+7 12812.3 2.35155E+7 12812.3 0.0000362421 1.97466E-8 0.0000319018 1.85265E-8 27.1985 0.0330106
7632 2.34978E+7 12800.7 2.34978E+7 12800.7 0.0000365567 1.99149E-8 0.0000321896 1.86875E-8 27.1891 0.033008
7633 2.34762E+7 12787.5 2.34762E+7 12787.5 0.0000368679 2.00823E-8 0.0000324716 1.8847E-8 27.1797 0.0330063
7634 2.34467E+7 12772.6 2.34467E+7 12772.6 0.000037169 2.02482E-8 0.0000327312 1.9001E-8 27.1703 0.0330078
7635 2.34183E+7 12758.1 2.34183E+7 12758.1 0.0000374744 2.0416E-8 0.000032997 1.91576E-8 27.1609 0.033009
7636 2.34041E+7 12746.7 2.34041E+7 12746.7 0.000037805 2.05903E-8 0.0000332806 1.9319E-8 27.1515 0.0330043
7637 2.33642E+7 12729.2 2.33642E+7 12729.2 0.0000380965 2.07559E-8 0.0000335531 1.94788E-8 27.1421 0.0330097
7638 2.33328E+7 12713.5 2.33328E+7 12713.5 0.0000384047 2.09262E-8 0.0000338337 1.96414E-8 27.1327 0.0330116
7639 2.33324E+7 12706.3 2.33324E+7 12706.3 0.0000387665 2.11117E-8 0.0000341391 1.98115E-8 27.1233 0.0330025
7640 2.33007E+7 12691.3 2.33007E+7 12691.3 0.0000390791 2.12856E-8 0.0000344258 1.99782E-8 27.1139 0.0330054
7641 2.32753E+7 12677.3 2.32753E+7 12677.3 0.0000394049 2.14628E-8 0.0000347004 2.0141E-8 27.1045 0.0330052
7642 2.32496E+7 12663.6 2.32496E+7 12663.6 0.0000397328 2.1642E-8 0.0000350134 2.03163E-8 27.0951 0.0330056
7643 2.32249E+7 12649.5 2.32249E+7 12649.5 0.0000400654 2.1822E-8 0.0000352979 2.04826E-8 27.0857 0.0330047
7644 2.31955E+7 12634.7 2.31955E+7 12634.7 0.0000403922 2.2002E-8 0.0000355824 2.06506E-8 27.0763 0.0330062
7645 2.31641E+7 12618.9 2.31641E+7 12618.9 0.0000407184 2.2182E-8 0.0000358756 2.08213E-8 27.0669 0.033008
7646 2.31454E+7 12607.4 2.31454E+7 12607.4 0.0000410691 2.23709E-8 0.0000361829 2.09978E-8 27.0576 0.0330063
7647 2.30979E+7 12587.3 2.30979E+7 12587.3 0.0000413719 2.25461E-8 0.0000364671 2.11676E-8 27.0482 0.0330139
7648 2.30901E+7 12578.3 2.30901E+7 12578.3 0.000041748 2.27424E-8 0.0000367963 2.13512E-8 27.0388 0.0330076
7649 2.30707E+7 12565.9 2.30707E+7 12565.9 0.0000421068 2.29346E-8 0.0000371058 2.15297E-8 27.0294 0.0330053
7650 2.30427E+7 12552 2.30427E+7 12552 0.0000424524 2.31253E-8 0.0000374255 2.17132E-8 27.02 0.033007
7651 2.30208E+7 12538.4 2.30208E+7 12538.4 0.0000428125 2.33183E-8 0.0000377333 2.18915E-8 27.0106 0.0330048
7652 2.29837E+7 12521.4 2.29837E+7 12521.4 0.0000431467 2.35064E-8 0.0000380415 2.2072E-8 27.0012 0.033009
7653 2.29636E+7 12509.4 2.29636E+7 12509.4 0.0000435158 2.37054E-8 0.0000383715 2.22604E-8 26.9918 0.0330076
7654 2.29399E+7 12496.1 2.29399E+7 12496.1 0.0000438812 2.39038E-8 0.000038702 2.2449E-8 26.9824 0.0330071
7655 2.28958E+7 12477 2.28958E+7 12477 0.0000442099 2.40925E-8 0.0000389782 2.26221E-8 26.973 0.0330137
7656 2.28749E+7 12464.6 2.28749E+7 12464.6 0.0000445868 2.42957E-8 0.0000393113 2.28133E-8 26.9636 0.0330122
7657 2.28526E+7 12451.4 2.28526E+7 12451.4 0.0000449636 2.4499E-8 0.0000396502 2.30058E-8 26.9542 0.0330109
7658 2.28313E+7 12438.8 2.28313E+7 12438.8 0.0000453457 2.47053E-8 0.0000399805 2.31979E-8 26.9448 0.0330096
7659 2.28009E+7 12423.4 2.28009E+7 12423.4 0.0000457125 2.49075E-8 0.0000403048 2.33879E-8 26.9354 0.0330112
7660 2.28032E+7 12417.3 2.28032E+7 12417.3 0.0000461487 2.51303E-8 0.0000406874 2.35963E-8 26.9261 0.0330014
7661 2.27609E+7 12398.8 2.27609E+7 12398.8 0.0000464977 2.53296E-8 0.0000410138 2.37891E-8 26.9167 0.0330074
7662 2.27178E+7 12380.3 2.27178E+7 12380.3 0.0000468478 2.55304E-8 0.0000413259 2.39789E-8 26.9073 0.033014
7663 2.268E+7 12362.9 2.268E+7 12362.9 0.0000472114 2.57354E-8 0.0000416442 2.41704E-8 26.8979 0.0330184
7664 2.27006E+7 12361.6 2.27006E+7 12361.6 0.0000476998 2.59752E-8 0.0000420715 2.43946E-8 26.8885 0.0330016
7665 2.26625E+7 12344.7 2.26625E+7 12344.7 0.0000480695 2.61847E-8 0.0000423882 2.45887E-8 26.8791 0.0330067
7666 2.26318E+7 12329.7 2.26318E+7 12329.7 0.0000484574 2.63997E-8 0.0000427441 2.47944E-8 26.8697 0.033009
7667 2.26241E+7 12320.4 2.26241E+7 12320.4 0.0000488977 2.66286E-8 0.0000431422 2.50124E-8 26.8603 0.0330023
7668 2.25769E+7 12300.9 2.25769E+7 12300.9 0.0000492561 2.68374E-8 0.0000434509 2.52062E-8 26.8509 0.0330106
7669 2.25515E+7 12287.1 2.25515E+7 12287.1 0.0000496652 2.70603E-8 0.0000438331 2.5422E-8 26.8415 0.0330106
7670 2.25317E+7 12274.8 2.25317E+7 12274.8 0.0000500903 2.72886E-8 0.000044207 2.56363E-8 26.8321 0.0330086
7671 2.25169E+7 12264 2.25169E+7 12264 0.0000505296 2.75218E-8 0.000044595 2.58551E-8 26.8227 0.0330049
7672 2.24867E+7 12248.9 2.24867E+7 12248.9 0.0000509378 2.77471E-8 0.0000449419 2.6063E-8 26.8133 0.0330067
7673 2.24708E+7 12237.9 2.24708E+7 12237.9 0.0000513823 2.7984E-8 0.0000453468 2.6289E-8 26.8039 0.0330036
7674 2.24309E+7 12220.2 2.24309E+7 12220.2 0.000051775 2.82072E-8 0.0000456874 2.6497E-8 26.7946 0.0330091
7675 2.24142E+7 12208.8 2.24142E+7 12208.8 0.000052225 2.84469E-8 0.0000460905 2.67238E-8 26.7852 0.0330059
7676 2.23778E+7 12192.1 2.23778E+7 12192.1 0.000052632 2.8676E-8 0.0000464623 2.69428E-8 26.7758 0.0330102
7677 2.2353E+7 12178.5 2.2353E+7 12178.5 0.0000530703 2.89145E-8 0.0000468333 2.71624E-8 26.7664 0.03301
7678 2.23211E+7 12163 2.23211E+7 12163 0.0000534945 2.91502E-8 0.0000472106 2.73843E-8 26.757 0.0330126
7679 2.23071E+7 12152.6 2.23071E+7 12152.6 0.0000539653 2.94E-8 0.0000476448 2.76246E-8 26.7476 0.0330088
7680 2.22632E+7 12134 2.22632E+7 12134 0.0000543678 2.96322E-8 0.0000480012 2.78432E-8 26.7382 0.033016
7681 2.22484E+7 12122.5 2.22484E+7 12122.5 0.000054844 2.98834E-8 0.0000484107 2.80761E-8 26.7288 0.0330114
7682 2.22296E+7 12110.7 2.22296E+7 12110.7 0.0000553149 3.01361E-8 0.0000488365 2.83166E-8 26.7194 0.0330093
7683 2.21941E+7 12094.4 2.21941E+7 12094.4 0.0000557476 3.03795E-8 0.0000492443 2.85526E-8 26.71 0.0330134
7684 2.21849E+7 12085.3 2.21849E+7 12085.3 0.0000562504 3.0643E-8 0.0000496691 2.87945E-8 26.7006 0.0330078
7685 2.21604E+7 12071.6 2.21604E+7 12071.6 0.0000567185 3.08973E-8 0.0000500743 2.90313E-8 26.6912 0.0330074
7686 2.21153E+7 12052.3 2.21153E+7 12052.3 0.0000571375 3.11389E-8 0.0000504623 2.92636E-8 26.6818 0.0330145
7687 2.21208E+7 12047.3 2.21208E+7 12047.3 0.0000576911 3.14198E-8 0.0000509537 2.95283E-8 26.6724 0.0330036
7688 2.20861E+7 12031.1 2.20861E+7 12031.1 0.0000581438 3.16734E-8 0.0000513686 2.9771E-8 26.663 0.0330072
7689 2.20371E+7 12010.9 2.20371E+7 12010.9 0.0000585627 3.19189E-8 0.000051741 3.00023E-8 26.6537 0.0330162
7690 2.2045E+7 12006.4 2.2045E+7 12006.4 0.0000591367 3.22081E-8 0.0000522356 3.02703E-8 26.6443 0.0330041
7691 2.20102E+7 11989.9 2.20102E+7 11989.9 0.0000596003 3.24674E-8 0.0000526478 3.05149E-8 26.6349 0.0330075
7692 2.19875E+7 11977.1 2.19875E+7 11977.1 0.0000601008 3.27388E-8 0.0000530957 3.07719E-8 26.6255 0.0330069
7693 2.19687E+7 11965.2 2.19687E+7 11965.2 0.000060616 3.30149E-8 0.0000535527 3.10316E-8 26.6161 0.0330046
7694 2.19337E+7 11948.9 2.19337E+7 11948.9 0.0000610906 3.32809E-8 0.0000539752 3.12828E-8 26.6067 0.0330084
7695 2.19132E+7 11936.6 2.19132E+7 11936.6 0.0000616093 3.35604E-8 0.0000544418 3.15481E-8 26.5973 0.0330068
7696 2.18859E+7 11922.4 2.18859E+7 11922.4 0.0000621136 3.3837E-8 0.0000548849 3.18073E-8 26.5879 0.0330078
7697 2.18664E+7 11910.8 2.18664E+7 11910.8 0.0000626439 3.4123E-8 0.0000553583 3.20774E-8 26.5785 0.0330064
7698 2.18315E+7 11894.4 2.18315E+7 11894.4 0.0000631343 3.43977E-8 0.0000557749 3.23306E-8 26.5691 0.03301
7699 2.18198E+7 11884.5 2.18198E+7 11884.5 0.0000636956 3.46932E-8 0.0000562742 3.26095E-8 26.5597 0.0330051
7700 2.17862E+7 11868.5 2.17862E+7 11868.5 0.0000641978 3.49736E-8 0.0000567444 3.28805E-8 26.5503 0.0330083
7701 2.17762E+7 11859.2 2.17762E+7 11859.2 0.0000647741 3.5276E-8 0.0000572571 3.31659E-8 26.5409 0.0330029
7702 2.17398E+7 11842.4 2.17398E+7 11842.4 0.0000652762 3.55586E-8 0.0000577286 3.34396E-8 26.5315 0.0330072
7703 2.17174E+7 11829.7 2.17174E+7 11829.7 0.0000658242 3.58555E-8 0.0000581833 3.37103E-8 26.5221 0.0330065
7704 2.168E+7 11812.4 2.168E+7 11812.4 0.0000663309 3.6141E-8 0.0000586526 3.39846E-8 26.5128 0.0330108
7705 2.16562E+7 11799.8 2.16562E+7 11799.8 0.0000668833 3.64432E-8 0.0000591231 3.42636E-8 26.5034 0.0330113
7706 2.1627E+7 11785.1 2.1627E+7 11785.1 0.0000674239 3.67415E-8 0.0000595852 3.45401E-8 26.494 0.033013
7707 2.16067E+7 11772.5 2.16067E+7 11772.5 0.0000679962 3.70485E-8 0.0000601094 3.48337E-8 26.4846 0.0330108
7708 2.15928E+7 11762.4 2.15928E+7 11762.4 0.0000685935 3.73659E-8 0.0000606506 3.5136E-8 26.4752 0.0330073
7709 2.15684E+7 11748.8 2.15684E+7 11748.8 0.0000691629 3.76752E-8 0.0000611706 3.54318E-8 26.4658 0.0330069
7710 2.15308E+7 11731.5 2.15308E+7 11731.5 0.0000696934 3.79744E-8 0.0000616113 3.57046E-8 26.4564 0.0330113
7711 2.15074E+7 11718.9 2.15074E+7 11718.9 0.0000702748 3.82916E-8 0.0000621482 3.601E-8 26.447 0.0330115
7712 2.1477E+7 11704 2.1477E+7 11704 0.0000708379 3.86041E-8 0.0000626644 3.63083E-8 26.4376 0.033014
7713 2.14672E+7 11694.6 2.14672E+7 11694.6 0.0000714742 3.89371E-8 0.000063215 3.66187E-8 26.4282 0.0330081
7714 2.14317E+7 11678.4 2.14317E+7 11678.4 0.0000720295 3.92502E-8 0.000063698 3.69108E-8 26.4188 0.0330125
7715 2.14234E+7 11669.4 2.14234E+7 11669.4 0.0000726809 3.95903E-8 0.0000642874 3.72341E-8 26.4094 0.0330064
7716 2.13847E+7 11651.8 2.13847E+7 11651.8 0.0000732342 3.99033E-8 0.0000647747 3.75281E-8 26.4 0.0330112
7717 2.13698E+7 11641.5 2.13698E+7 11641.5 0.0000738736 4.02442E-8 0.0000653401 3.78484E-8 26.3906 0.0330081
7718 2.13415E+7 11627.1 2.13415E+7 11627.1 0.0000744724 4.05738E-8 0.0000658792 3.81612E-8 26.3812 0.0330095
7719 2.13075E+7 11611.1 2.13075E+7 11611.1 0.0000750556 4.09004E-8 0.0000664112 3.84731E-8 26.3719 0.0330131
7720 2.12946E+7 11601 2.12946E+7 11601 0.0000757178 4.12505E-8 0.0000670031 3.88039E-8 26.3625 0.0330088
7721 2.12556E+7 11583.7 2.12556E+7 11583.7 0.0000762924 4.15778E-8 0.0000675037 3.91101E-8 26.3531 0.0330144
7722 2.12332E+7 11571.1 2.12332E+7 11571.1 0.0000769318 4.19248E-8 0.0000680747 3.94379E-8 26.3437 0.0330139
7723 2.1214E+7 11559.4 2.1214E+7 11559.4 0.0000775875 4.22774E-8 0.0000686537 3.97691E-8 26.3343 0.033012
7724 2.11836E+7 11543.9 2.11836E+7 11543.9 0.0000782071 4.26192E-8 0.000069217 4.0095E-8 26.3249 0.0330136
7725 2.11737E+7 11534.8 2.11737E+7 11534.8 0.0000789086 4.29877E-8 0.0000698319 4.04394E-8 26.3155 0.0330083
7726 2.11486E+7 11521.2 2.11486E+7 11521.2 0.0000795589 4.33421E-8 0.0000704147 4.07752E-8 26.3061 0.0330084
7727 2.11199E+7 11506.7 2.11199E+7 11506.7 0.0000802003 4.36961E-8 0.0000709841 4.11091E-8 26.2967 0.0330101
7728 2.10911E+7 11492.4 2.10911E+7 11492.4 0.0000808466 4.40536E-8 0.0000715321 4.14377E-8 26.2873 0.0330121
7729 2.10795E+7 11482.8 2.10795E+7 11482.8 0.0000815648 4.44322E-8 0.0000722062 4.1806E-8 26.2779 0.0330074
7730 2.10406E+7 11465.6 2.10406E+7 11465.6 0.0000821828 4.47844E-8 0.0000727411 4.21336E-8 26.2685 0.0330131
7731 2.10127E+7 11451.1 2.10127E+7 11451.1 0.0000828489 4.51499E-8 0.0000733458 4.24814E-8 26.2591 0.033014
7732 2.09993E+7 11441.1 2.09993E+7 11441.1 0.0000835771 4.55361E-8 0.0000739929 4.28454E-8 26.2497 0.0330102
7733 2.09827E+7 11430.3 2.09827E+7 11430.3 0.000084299 4.59224E-8 0.0000746291 4.32084E-8 26.2403 0.0330077
7734 2.0945E+7 11413.8 2.0945E+7 11413.8 0.0000849418 4.62889E-8 0.0000752225 4.35605E-8 26.231 0.0330135
7735 2.0931E+7 11403.7 2.0931E+7 11403.7 0.0000856858 4.66842E-8 0.0000758776 4.39314E-8 26.2216 0.0330099
7736 2.09087E+7 11391.3 2.09087E+7 11391.3 0.0000864028 4.70738E-8 0.0000764797 4.42885E-8 26.2122 0.0330095
7737 2.08919E+7 11380.2 2.08919E+7 11380.2 0.0000871479 4.74716E-8 0.0000771799 4.46737E-8 26.2028 0.0330067
7738 2.08611E+7 11365.3 2.08611E+7 11365.3 0.0000878408 4.78572E-8 0.0000777852 4.50349E-8 26.1934 0.0330095
7739 2.08432E+7 11354.5 2.08432E+7 11354.5 0.0000885938 4.82629E-8 0.0000784799 4.54252E-8 26.184 0.033008
7740 2.08204E+7 11342.1 2.08204E+7 11342.1 0.0000893319 4.86648E-8 0.0000791282 4.58013E-8 26.1746 0.0330079
7741 2.07967E+7 11329.3 2.07967E+7 11329.3 0.000090072 4.9069E-8 0.0000797753 4.61788E-8 26.1652 0.0330082
7742 2.07701E+7 11315.9 2.07701E+7 11315.9 0.0000908064 4.94734E-8 0.000080421 4.65585E-8 26.1558 0.0330097
7743 2.07462E+7 11302.9 2.07462E+7 11302.9 0.0000915572 4.98825E-8 0.0000811073 4.69497E-8 26.1464 0.0330097
7744 2.07173E+7 11289 2.07173E+7 11289 0.0000922929 5.02919E-8 0.0000817875 4.73432E-8 26.137 0.0330125
7745 2.06863E+7 11274.2 2.06863E+7 11274.2 0.0000930241 5.06995E-8 0.0000823889 4.77136E-8 26.1276 0.0330155
7746 2.06774E+7 11265.8 2.06774E+7 11265.8 0.0000938616 5.11398E-8 0.0000831596 4.81362E-8 26.1182 0.0330103
7747 2.06539E+7 11252.7 2.06539E+7 11252.7 0.0000946405 5.15631E-8 0.0000838439 4.85326E-8 26.1088 0.0330099
7748 2.06335E+7 11241.1 2.06335E+7 11241.1 0.0000954383 5.19953E-8 0.0000845825 4.89492E-8 26.0995 0.0330091
7749 2.06197E+7 11230.9 2.06197E+7 11230.9 0.000096275 5.24384E-8 0.0000852873 4.93557E-8 26.0901 0.0330051
7750 2.05754E+7 11212.7 2.05754E+7 11212.7 0.0000969743 5.28475E-8 0.0000859203 4.97442E-8 26.0807 0.0330139
7751 2.05576E+7 11201.3 2.05576E+7 11201.3 0.0000978055 5.32926E-8 0.0000866659 5.01656E-8 26.0713 0.0330115
7752 2.05527E+7 11194.3 2.05527E+7 11194.3 0.0000987047 5.37615E-8 0.0000874904 5.06156E-8 26.0619 0.0330051
7753 2.04945E+7 11171.8 2.04945E+7 11171.8 0.0000993543 5.416E-8 0.000088066 5.09908E-8 26.0525 0.0330187
7754 2.0487E+7 11163.4 2.0487E+7 11163.4 0.000100255 5.46302E-8 0.0000888556 5.14303E-8 26.0431 0.0330123
7755 2.04647E+7 11151.7 2.04647E+7 11151.7 0.000101092 5.50881E-8 0.0000895867 5.18586E-8 26.0337 0.033013
7756 2.04597E+7 11143.8 2.04597E+7 11143.8 0.00010202 5.55684E-8 0.000090426 5.23157E-8 26.0243 0.0330054
7757 2.04334E+7 11130.1 2.04334E+7 11130.1 0.000102851 5.60239E-8 0.0000911748 5.27477E-8 26.0149 0.0330063
7758 2.04056E+7 11116.5 2.04056E+7 11116.5 0.00010368 5.64833E-8 0.0000918699 5.31691E-8 26.0055 0.0330086
7759 2.0371E+7 11101.2 2.0371E+7 11101.2 0.000104481 5.69379E-8 0.0000926614 5.36206E-8 25.9961 0.0330138
7760 2.03622E+7 11092.1 2.03622E+7 11092.1 0.000105422 5.74282E-8 0.0000934429 5.4067E-8 25.9867 0.0330074
7761 2.03525E+7 11083.5 2.03525E+7 11083.5 0.000106367 5.79258E-8 0.0000943414 5.45533E-8 25.9773 0.0330025
7762 2.0324E+7 11069.5 2.0324E+7 11069.5 0.000107219 5.8398E-8 0.0000950889 5.49952E-8 25.9679 0.0330047
7763 2.02775E+7 11050.6 2.02775E+7 11050.6 0.000107985 5.8849E-8 0.0000957566 5.54171E-8 25.9585 0.0330143
7764 2.02601E+7 11039.4 2.02601E+7 11039.4 0.000108909 5.93439E-8 0.0000965866 5.58862E-8 25.9492 0.0330118
7765 2.02354E+7 11026.7 2.02354E+7 11026.7 0.000109803 5.98351E-8 0.000097413 5.6359E-8 25.9398 0.033013
7766 2.02331E+7 11019.6 2.02331E+7 11019.6 0.000110826 6.03608E-8 0.0000982803 5.68416E-8 25.9304 0.0330042
7767 2.01975E+7 11004.1 2.01975E+7 11004.1 0.000111675 6.08442E-8 0.000099002 5.72881E-8 25.921 0.0330099
7768 2.01582E+7 10987.1 2.01582E+7 10987.1 0.00011251 6.13235E-8 0.0000997729 5.77483E-8 25.9116 0.0330166
7769 2.01331E+7 10974.1 2.01331E+7 10974.1 0.000113431 6.18294E-8 0.00010063 5.82369E-8 25.9022 0.0330176
7770 2.01044E+7 10960.1 2.01044E+7 10960.1 0.000114338 6.23332E-8 0.000101411 5.87042E-8 25.8928 0.0330201
7771 2.01145E+7 10956.5 2.01145E+7 10956.5 0.000115476 6.29013E-8 0.000102463 5.92518E-8 25.8834 0.0330064
7772 2.00895E+7 10944.1 2.00895E+7 10944.1 0.000116419 6.34222E-8 0.000103283 5.97372E-8 25.874 0.0330082
7773 2.00616E+7 10929.6 2.00616E+7 10929.6 0.000117355 6.39363E-8 0.000104111 6.02206E-8 25.8646 0.0330093
7774 2.00279E+7 10914.6 2.00279E+7 10914.6 0.000118264 6.44515E-8 0.000104917 6.07058E-8 25.8552 0.0330144
7775 2.00114E+7 10903.8 2.00114E+7 10903.8 0.000119282 6.49948E-8 0.000105835 6.12222E-8 25.8458 0.0330116
7776 2.00061E+7 10896.3 2.00061E+7 10896.3 0.000120376 6.55637E-8 0.00010679 6.1753E-8 25.8364 0.0330047
7777 1.99514E+7 10875.2 1.99514E+7 10875.2 0.000121179 6.60543E-8 0.000107569 6.22338E-8 25.827 0.0330179
7778 1.99483E+7 10868.1 1.99483E+7 10868.1 0.000122304 6.66335E-8 0.000108536 6.27714E-8 25.8177 0.0330096
7779 1.99169E+7 10853.7 1.99169E+7 10853.7 0.000123264 6.71731E-8 0.000109423 6.32897E-8 25.8083 0.0330137
7780 1.98919E+7 10840.7 1.98919E+7 10840.7 0.000124271 6.77264E-8 0.000110294 6.38046E-8 25.7989 0.0330147
7781 1.98878E+7 10833.4 1.98878E+7 10833.4 0.000125418 6.83195E-8 0.000111323 6.43656E-8 25.7895 0.033007
7782 1.98591E+7 10819.6 1.98591E+7 10819.6 0.000126419 6.8876E-8 0.000112229 6.48962E-8 25.7801 0.0330097
7783 1.98409E+7 10808.4 1.98409E+7 10808.4 0.000127495 6.94545E-8 0.000113155 6.5433E-8 25.7707 0.0330079
7784 1.98217E+7 10797.1 1.98217E+7 10797.1 0.000128574 7.00367E-8 0.000114152 6.5992E-8 25.7613 0.0330066
7785 1.97293E+7 10775.6 1.97293E+7 10775.6 0.000129179 7.05559E-8 0.000114674 6.64764E-8 25.7519 0.0330508
7786 1.86683E+7 10671 1.86683E+7 10671 0.000123348 7.05241E-8 0.000109519 6.64505E-8 25.7428 0.0338136
7787 1.44845E+7 10161.1 1.44845E+7 10161.1 0.0000965217 6.77629E-8 0.0000857066 6.38511E-8 25.7343 0.0374642
7788 1.00867E+7 9442.78 1.00867E+7 9442.78 0.0000678847 6.35764E-8 0.0000602431 5.98932E-8 25.7244 0.0432747
7789 1.11652E+7 9611.68 1.11652E+7 9611.68 0.0000760038 6.53817E-8 0.000067467 6.16006E-8 25.713 0.0414862
7790 1.59089E+7 10316.5 1.59089E+7 10316.5 0.00010929 7.08256E-8 0.0000970785 6.67468E-8 25.7039 0.0360073
7791 1.89569E+7 10639.3 1.89569E+7 10639.3 0.000131352 7.37093E-8 0.000116659 6.9463E-8 25.6953 0.0335022
7792 1.95912E+7 10691.4 1.95912E+7 10691.4 0.000136998 7.47634E-8 0.000121666 7.04557E-8 25.6861 0.033037
7793 1.96102E+7 10684.4 1.96102E+7 10684.4 0.000138423 7.54196E-8 0.000122932 7.10746E-8 25.6768 0.0330104
7794 1.95696E+7 10667 1.95696E+7 10667 0.00013944 7.60069E-8 0.000123847 7.16311E-8 25.6674 0.0330177
7795 1.95618E+7 10659.3 1.95618E+7 10659.3 0.0001407 7.66686E-8 0.000124948 7.22492E-8 25.658 0.0330122
7796 1.9558E+7 10651.8 1.9558E+7 10651.8 0.000142 7.73387E-8 0.000126156 7.28961E-8 25.6486 0.033004
7797 1.95239E+7 10636.6 1.95239E+7 10636.6 0.00014309 7.79561E-8 0.000127089 7.34683E-8 25.6392 0.0330091
7798 1.94921E+7 10621.8 1.94921E+7 10621.8 0.000144207 7.85833E-8 0.000128105 7.40665E-8 25.6298 0.0330131
7799 1.94793E+7 10612.1 1.94793E+7 10612.1 0.000145471 7.92519E-8 0.000129257 7.47046E-8 25.6204 0.0330088
7800 1.94457E+7 10597.2 1.94457E+7 10597.2 0.000146591 7.98872E-8 0.000130273 7.531E-8 25.611 0.0330141
7801 1.94221E+7 10584.4 1.94221E+7 10584.4 0.000147795 8.05442E-8 0.000131297 7.59158E-8 25.6016 0.0330142
7802 1.93986E+7 10571.7 1.93986E+7 10571.7 0.000149009 8.12069E-8 0.000132412 7.6551E-8 25.5922 0.0330145
7803 1.93744E+7 10559.4 1.93744E+7 10559.4 0.000150227 8.18781E-8 0.000133525 7.71922E-8 25.5828 0.0330159
7804 1.93729E+7 10552.8 1.93729E+7 10552.8 0.000151633 8.25987E-8 0.000134771 7.78714E-8 25.5734 0.0330068
7805 1.93551E+7 10541.9 1.93551E+7 10541.9 0.000152924 8.32921E-8 0.000135919 7.85248E-8 25.564 0.0330048
7806 1.9313E+7 10524.4 1.9313E+7 10524.4 0.000154031 8.39389E-8 0.000136844 7.91176E-8 25.5546 0.0330134
7807 1.92989E+7 10514.6 1.92989E+7 10514.6 0.000155371 8.46518E-8 0.000138067 7.97988E-8 25.5453 0.0330101
7808 1.92841E+7 10505 1.92841E+7 10505 0.000156718 8.53735E-8 0.000139248 8.04748E-8 25.5359 0.0330077
7809 1.92416E+7 10486.8 1.92416E+7 10486.8 0.000157848 8.60291E-8 0.000140299 8.11054E-8 25.5265 0.0330154
7810 1.92281E+7 10476.9 1.92281E+7 10476.9 0.000159226 8.67593E-8 0.000141588 8.18128E-8 25.5171 0.0330114
7811 1.92193E+7 10468.7 1.92193E+7 10468.7 0.000160654 8.75095E-8 0.00014282 8.251E-8 25.5077 0.0330061
7812 1.91911E+7 10455.1 1.91911E+7 10455.1 0.000161933 8.822E-8 0.000143961 8.31805E-8 25.4983 0.0330088
7813 1.915E+7 10438 1.915E+7 10438 0.000163111 8.89067E-8 0.00014501 8.38288E-8 25.4889 0.0330171
7814 1.91461E+7 10430.8 1.91461E+7 10430.8 0.000164618 8.96849E-8 0.000146343 8.45604E-8 25.4795 0.0330092
7815 1.9133E+7 10421 1.9133E+7 10421 0.000166057 9.04459E-8 0.000147628 8.52803E-8 25.4701 0.033005
7816 1.90856E+7 10402 1.90856E+7 10402 0.000167209 9.11332E-8 0.000148676 8.59336E-8 25.4607 0.0330158
7817 1.90803E+7 10394.8 1.90803E+7 10394.8 0.000168739 9.19287E-8 0.000150063 8.66925E-8 25.4513 0.0330089
7818 1.9051E+7 10380.8 1.9051E+7 10380.8 0.000170071 9.26721E-8 0.000151205 8.73808E-8 25.4419 0.0330121
7819 1.90345E+7 10370.4 1.90345E+7 10370.4 0.000171526 9.34522E-8 0.000152533 8.81264E-8 25.4325 0.0330098
7820 1.90027E+7 10355.5 1.90027E+7 10355.5 0.000172857 9.41989E-8 0.00015374 8.88367E-8 25.4231 0.0330136
7821 1.89908E+7 10346.5 1.89908E+7 10346.5 0.000174379 9.5006E-8 0.000155086 8.95965E-8 25.4137 0.0330097
7822 1.89826E+7 10337.8 1.89826E+7 10337.8 0.000175948 9.58214E-8 0.000156454 9.03569E-8 25.4044 0.033003
7823 1.89314E+7 10318.4 1.89314E+7 10318.4 0.000177131 9.65447E-8 0.000157533 9.10472E-8 25.395 0.0330165
7824 1.89284E+7 10311.2 1.89284E+7 10311.2 0.000178773 9.73874E-8 0.000159045 9.18563E-8 25.3856 0.0330076
7825 1.89043E+7 10298.9 1.89043E+7 10298.9 0.000180231 9.81894E-8 0.000160354 9.26167E-8 25.3762 0.0330089
7826 1.88883E+7 10288.2 1.88883E+7 10288.2 0.000181778 9.90133E-8 0.000161771 9.34054E-8 25.3668 0.0330058
7827 1.8863E+7 10275.6 1.8863E+7 10275.6 0.000183247 9.98251E-8 0.000163085 9.4174E-8 25.3574 0.0330077
7828 1.88235E+7 10258.9 1.88235E+7 10258.9 0.00018459 1.00604E-7 0.000164197 9.48835E-8 25.348 0.0330154
7829 1.8804E+7 10247.4 1.8804E+7 10247.4 0.000186139 1.01439E-7 0.000165684 9.57043E-8 25.3386 0.033014
7830 1.87787E+7 10234.6 1.87787E+7 10234.6 0.000187643 1.02268E-7 0.000166952 9.64661E-8 25.3292 0.0330155
7831 1.87694E+7 10226 1.87694E+7 10226 0.000189318 1.03146E-7 0.000168504 9.73107E-8 25.3198 0.0330099
7832 1.87376E+7 10211.6 1.87376E+7 10211.6 0.000190782 1.03974E-7 0.000169774 9.8082E-8 25.3104 0.0330146
7833 1.87263E+7 10202.6 1.87263E+7 10202.6 0.000192467 1.04863E-7 0.000171266 9.89193E-8 25.301 0.0330101
7834 1.86972E+7 10188.6 1.86972E+7 10188.6 0.000193982 1.05707E-7 0.000172606 9.97128E-8 25.2916 0.033013
7835 1.87031E+7 10184 1.87031E+7 10184 0.000195875 1.06657E-7 0.000174355 1.00628E-7 25.2822 0.0330004
7836 1.86625E+7 10167.2 1.86625E+7 10167.2 0.000197292 1.07485E-7 0.00017563 1.01414E-7 25.2729 0.033009
7837 1.86319E+7 10152.9 1.86319E+7 10152.9 0.000198828 1.08347E-7 0.000176956 1.02214E-7 25.2635 0.0330129
7838 1.86189E+7 10143.5 1.86189E+7 10143.5 0.000200564 1.09267E-7 0.000178513 1.03087E-7 25.2541 0.033009
7839 1.85778E+7 10126.4 1.85778E+7 10126.4 0.000202011 1.10114E-7 0.00017982 1.0389E-7 25.2447 0.0330177
7840 1.85745E+7 10119.8 1.85745E+7 10119.8 0.000203881 1.1108E-7 0.00018153 1.04815E-7 25.2353 0.0330098
7841 1.85551E+7 10108.5 1.85551E+7 10108.5 0.000205591 1.12004E-7 0.000183098 1.057E-7 25.2259 0.0330087
7842 1.85394E+7 10098.4 1.85394E+7 10098.4 0.000207354 1.12947E-7 0.000184641 1.06582E-7 25.2165 0.0330062
7843 1.85008E+7 10082 1.85008E+7 10082 0.000208875 1.13828E-7 0.00018605 1.0743E-7 25.2071 0.0330138
7844 1.84901E+7 10073.5 1.84901E+7 10073.5 0.000210725 1.14806E-7 0.000187607 1.08325E-7 25.1977 0.0330093
7845 1.84678E+7 10062 1.84678E+7 10062 0.000212456 1.15756E-7 0.000189207 1.09239E-7 25.1883 0.0330104
7846 1.8442E+7 10048.9 1.8442E+7 10048.9 0.000214162 1.16697E-7 0.000190731 1.10129E-7 25.1789 0.033012
7847 1.84257E+7 10039 1.84257E+7 10039 0.000215993 1.17682E-7 0.000192371 1.1106E-7 25.1695 0.0330103
7848 1.83916E+7 10024 1.83916E+7 10024 0.000217627 1.18615E-7 0.000193789 1.1193E-7 25.1601 0.0330163
7849 1.838E+7 10015.1 1.838E+7 10015.1 0.000219543 1.19629E-7 0.000195551 1.12903E-7 25.1507 0.033012
7850 1.83512E+7 10002 1.83512E+7 10002 0.000221268 1.206E-7 0.000197103 1.13824E-7 25.1413 0.0330162
7851 1.83385E+7 9992.57 1.83385E+7 9992.57 0.000223201 1.21623E-7 0.000198791 1.1478E-7 25.132 0.0330121
7852 1.83126E+7 9980.2 1.83126E+7 9980.2 0.000224989 1.22619E-7 0.000200478 1.15746E-7 25.1226 0.033015
7853 1.83227E+7 9977.26 1.83227E+7 9977.26 0.000227238 1.2374E-7 0.000202461 1.16799E-7 25.1132 0.0330011
7854 1.82744E+7 9958.54 1.82744E+7 9958.54 0.000228779 1.24674E-7 0.000203815 1.17675E-7 25.1038 0.0330136
7855 1.82492E+7 9945.65 1.82492E+7 9945.65 0.000230619 1.25687E-7 0.00020538 1.18609E-7 25.0944 0.033015
7856 1.82411E+7 9937.96 1.82411E+7 9937.96 0.000232691 1.26774E-7 0.000207358 1.19675E-7 25.085 0.0330095
7857 1.82165E+7 9925.8 1.82165E+7 9925.8 0.000234572 1.27815E-7 0.000208977 1.20641E-7 25.0756 0.0330116
7858 1.82069E+7 9917.25 1.82069E+7 9917.25 0.000236661 1.2891E-7 0.000210892 1.2169E-7 25.0662 0.0330061
7859 1.81776E+7 9903.66 1.81776E+7 9903.66 0.000238509 1.29948E-7 0.000212562 1.22677E-7 25.0568 0.03301
7860 1.81441E+7 9889 1.81441E+7 9889 0.000240317 1.3098E-7 0.000214243 1.23671E-7 25.0474 0.033016
7861 1.81262E+7 9878.45 1.81262E+7 9878.45 0.000242344 1.32075E-7 0.000216054 1.24706E-7 25.038 0.0330147
7862 1.81047E+7 9867.02 1.81047E+7 9867.02 0.000244343 1.33168E-7 0.000217774 1.2572E-7 25.0286 0.0330152
7863 1.80959E+7 9859.23 1.80959E+7 9859.23 0.000246528 1.34319E-7 0.000219756 1.26817E-7 25.0192 0.0330102
7864 1.80722E+7 9847.1 1.80722E+7 9847.1 0.000248526 1.35418E-7 0.000221487 1.27839E-7 25.0098 0.0330115
7865 1.80501E+7 9835.28 1.80501E+7 9835.28 0.000250567 1.36533E-7 0.000223329 1.28897E-7 25.0004 0.0330119
7866 1.80403E+7 9827.07 1.80403E+7 9827.07 0.000252794 1.37706E-7 0.000225225 1.2998E-7 24.9911 0.0330071
7867 1.79986E+7 9809.81 1.79986E+7 9809.81 0.000254592 1.38763E-7 0.000226997 1.31027E-7 24.9817 0.0330162
7868 1.79879E+7 9801.7 1.79879E+7 9801.7 0.000256841 1.39956E-7 0.000228972 1.32146E-7 24.9723 0.0330124
7869 1.79696E+7 9791.03 1.79696E+7 9791.03 0.000259002 1.41123E-7 0.000230968 1.33266E-7 24.9629 0.0330112
7870 1.7943E+7 9778.03 1.7943E+7 9778.03 0.000261058 1.42266E-7 0.000232754 1.34333E-7 24.9535 0.0330138
7871 1.79367E+7 9770.91 1.79367E+7 9770.91 0.000263429 1.43503E-7 0.000234881 1.35504E-7 24.9441 0.0330075
7872 1.78882E+7 9752.14 1.78882E+7 9752.14 0.000265197 1.4458E-7 0.000236399 1.36504E-7 24.9347 0.0330205
7873 1.78789E+7 9743.96 1.78789E+7 9743.96 0.000267559 1.45821E-7 0.000238515 1.37678E-7 24.9253 0.0330152
7874 1.7858E+7 9732.9 1.7858E+7 9732.9 0.000269769 1.4703E-7 0.000240595 1.38853E-7 24.9159 0.0330158
7875 1.78378E+7 9721.53 1.78378E+7 9721.53 0.000272005 1.48244E-7 0.000242632 1.40012E-7 24.9065 0.0330152
7876 1.78115E+7 9708.89 1.78115E+7 9708.89 0.00027417 1.4945E-7 0.000244597 1.4116E-7 24.8971 0.033018
7877 1.78008E+7 9700.25 1.78008E+7 9700.25 0.000276591 1.50726E-7 0.000246775 1.42371E-7 24.8877 0.0330133
7878 1.77713E+7 9686.88 1.77713E+7 9686.88 0.000278738 1.51938E-7 0.000248641 1.43501E-7 24.8783 0.0330178
7879 1.77695E+7 9680.63 1.77695E+7 9680.63 0.000281339 1.53272E-7 0.000250942 1.44756E-7 24.8689 0.0330089
7880 1.77559E+7 9671.6 1.77559E+7 9671.6 0.000283779 1.54576E-7 0.000253112 1.45987E-7 24.8595 0.0330061
7881 1.7711E+7 9653.68 1.7711E+7 9653.68 0.000285734 1.55746E-7 0.000254906 1.47103E-7 24.8501 0.0330172
7882 1.76872E+7 9642.03 1.76872E+7 9642.03 0.00028804 1.57025E-7 0.000256971 1.48316E-7 24.8408 0.0330196
7883 1.76881E+7 9636.47 1.76881E+7 9636.47 0.000290773 1.58415E-7 0.000259371 1.49618E-7 24.8314 0.0330092
7884 1.76484E+7 9620 1.76484E+7 9620 0.000292861 1.59638E-7 0.000261272 1.50783E-7 24.822 0.033018
7885 1.76225E+7 9607.42 1.76225E+7 9607.42 0.00029519 1.60933E-7 0.000263476 1.52042E-7 24.8126 0.0330207
7886 1.76181E+7 9600.41 1.76181E+7 9600.41 0.000297901 1.62333E-7 0.00026589 1.53364E-7 24.8032 0.0330128
7887 1.75939E+7 9588.65 1.75939E+7 9588.65 0.000300299 1.63665E-7 0.00026788 1.5458E-7 24.7938 0.0330153
7888 1.75614E+7 9573.94 1.75614E+7 9573.94 0.000302572 1.64956E-7 0.000270006 1.55826E-7 24.7844 0.0330204
7889 1.7565E+7 9569.4 1.7565E+7 9569.4 0.000305491 1.66433E-7 0.000272714 1.57252E-7 24.775 0.0330092
7890 1.75407E+7 9557.53 1.75407E+7 9557.53 0.000307947 1.67795E-7 0.000274921 1.58542E-7 24.7656 0.0330115
7891 1.75218E+7 9546.85 1.75218E+7 9546.85 0.000310519 1.6919E-7 0.00027719 1.59853E-7 24.7562 0.0330109
7892 1.75012E+7 9535.43 1.75012E+7 9535.43 0.000313082 1.70583E-7 0.000279443 1.61158E-7 24.7468 0.0330105
7893 1.74791E+7 9524.13 1.74791E+7 9524.13 0.000315638 1.71989E-7 0.000281701 1.6248E-7 24.7374 0.0330118
7894 1.74387E+7 9507.58 1.74387E+7 9507.58 0.000317881 1.73311E-7 0.000283716 1.63732E-7 24.728 0.0330213
7895 1.74314E+7 9499.89 1.74314E+7 9499.89 0.000320745 1.74805E-7 0.000286257 1.6514E-7 24.7186 0.0330149
7896 1.74207E+7 9491.25 1.74207E+7 9491.25 0.000323573 1.76293E-7 0.00028873 1.66532E-7 24.7093 0.03301
7897 1.73893E+7 9477.56 1.73893E+7 9477.56 0.000326036 1.777E-7 0.000291083 1.67904E-7 24.6999 0.033016
7898 1.73785E+7 9469.02 1.73785E+7 9469.02 0.000328909 1.79215E-7 0.000293653 1.69339E-7 24.6905 0.0330113
7899 1.73591E+7 9458.38 1.73591E+7 9458.38 0.000331643 1.80704E-7 0.000296067 1.70737E-7 24.6811 0.0330112
7900 1.73397E+7 9447.41 1.73397E+7 9447.41 0.000334398 1.82197E-7 0.000298648 1.72182E-7 24.6717 0.0330105
7901 1.73049E+7 9432.67 1.73049E+7 9432.67 0.000336879 1.8363E-7 0.00030092 1.73554E-7 24.6623 0.0330179
7902 1.73017E+7 9426.18 1.73017E+7 9426.18 0.000339962 1.85217E-7 0.000303642 1.75044E-7 24.653 0.0330095
7903 1.72599E+7 9409.1 1.72599E+7 9409.1 0.000341976 1.86427E-7 0.000305419 1.76181E-7 24.6447 0.0330195
7904 1.72804E+7 9409.7 1.72804E+7 9409.7 0.000344866 1.87791E-7 0.000307984 1.77466E-7 24.6374 0.033001
7905 1.72302E+7 9390.75 1.72302E+7 9390.75 0.000346284 1.88732E-7 0.000309254 1.78356E-7 24.6304 0.0330157
7906 1.72211E+7 9382.37 1.72211E+7 9382.37 0.000348533 1.89889E-7 0.000311376 1.79482E-7 24.6234 0.0330097
7907 1.71985E+7 9370.74 1.71985E+7 9370.74 0.000350525 1.90988E-7 0.000313112 1.80506E-7 24.6164 0.0330109
7908 1.71803E+7 9360.03 1.71803E+7 9360.03 0.000352616 1.92111E-7 0.000314985 1.81571E-7 24.6094 0.0330095
7909 1.71525E+7 9347.55 1.71525E+7 9347.55 0.000354521 1.93204E-7 0.000316646 1.82592E-7 24.6024 0.0330142
7910 1.71404E+7 9338.24 1.71404E+7 9338.24 0.00035676 1.94368E-7 0.000318759 1.83724E-7 24.5954 0.0330095
7911 1.71067E+7 9323.73 1.71067E+7 9323.73 0.000358564 1.95431E-7 0.000320309 1.84712E-7 24.5884 0.0330163
7912 1.71016E+7 9317.05 1.71016E+7 9317.05 0.00036098 1.96665E-7 0.000322397 1.85857E-7 24.5814 0.0330093
7913 1.70901E+7 9308.42 1.70901E+7 9308.42 0.000363272 1.97865E-7 0.00032466 1.87054E-7 24.5744 0.0330052
7914 1.70476E+7 9291.17 1.70476E+7 9291.17 0.00036492 1.98888E-7 0.000326108 1.88014E-7 24.5674 0.0330156
7915 1.70364E+7 9283 1.70364E+7 9283 0.000367243 2.00109E-7 0.000328206 1.89175E-7 24.5603 0.033012
7916 1.69674E+7 9317.43 1.69674E+7 9317.43 0.000368323 2.02276E-7 0.000329284 1.91243E-7 24.5534 0.0331409
7917 1.58614E+7 10856.2 1.58614E+7 10856.2 0.000346629 2.37628E-7 0.000309766 2.24544E-7 24.5467 0.0370132
7918 1.27157E+7 14770.1 1.27157E+7 14770.1 0.000279748 3.25572E-7 0.000249975 3.07751E-7 24.54 0.0482222
7919 1.25384E+7 14980.7 1.25384E+7 14980.7 0.000278142 3.31704E-7 0.000248696 3.13659E-7 24.5317 0.0488606
7920 1.55106E+7 11236.7 1.55106E+7 11236.7 0.000346416 2.50486E-7 0.000309743 2.36836E-7 24.5249 0.0380464
7921 1.68395E+7 9315.8 1.68395E+7 9315.8 0.000378597 2.09416E-7 0.000338367 1.97955E-7 24.5183 0.0332618
7922 1.68867E+7 9204.83 1.68867E+7 9204.83 0.000382318 2.08401E-7 0.000341831 1.97057E-7 24.5113 0.033018
7923 1.68901E+7 9199.51 1.68901E+7 9199.51 0.000385086 2.09745E-7 0.000344287 1.98325E-7 24.5043 0.0330052
7924 1.68506E+7 9183.21 1.68506E+7 9183.21 0.000386886 2.10846E-7 0.000345959 1.99382E-7 24.4973 0.0330146
7925 1.68377E+7 9174.58 1.68377E+7 9174.58 0.00038931 2.12129E-7 0.000347958 2.00547E-7 24.4903 0.0330116
7926 1.6811E+7 9161.56 1.6811E+7 9161.56 0.000391423 2.13317E-7 0.000349995 2.01714E-7 24.4833 0.0330144
7927 1.67868E+7 9149.59 1.67868E+7 9149.59 0.000393611 2.14538E-7 0.000352002 2.02879E-7 24.4763 0.0330166
7928 1.67668E+7 9138.97 1.67668E+7 9138.97 0.000395907 2.15796E-7 0.000354145 2.04098E-7 24.4692 0.0330171
7929 1.67516E+7 9129.34 1.67516E+7 9129.34 0.000398326 2.17083E-7 0.000356118 2.0526E-7 24.4622 0.0330147
7930 1.67462E+7 9122.41 1.67462E+7 9122.41 0.000401001 2.18445E-7 0.000358558 2.06562E-7 24.4552 0.0330075
7931 1.67232E+7 9110.71 1.67232E+7 9110.71 0.000403264 2.19698E-7 0.000360647 2.07765E-7 24.4482 0.033009
7932 1.66921E+7 9096.78 1.66921E+7 9096.78 0.000405347 2.20905E-7 0.000362458 2.08892E-7 24.4412 0.0330144
7933 1.66606E+7 9083.09 1.66606E+7 9083.09 0.000407428 2.22125E-7 0.000364444 2.10081E-7 24.4342 0.0330208
7934 1.66537E+7 9075.51 1.66537E+7 9075.51 0.000410124 2.235E-7 0.000366856 2.11382E-7 24.4272 0.0330138
7935 1.66272E+7 9063.18 1.66272E+7 9063.18 0.000412348 2.24764E-7 0.000368759 2.12553E-7 24.4202 0.0330177
7936 1.66134E+7 9053.79 1.66134E+7 9053.79 0.000414905 2.26112E-7 0.000371158 2.13859E-7 24.4132 0.0330143
7937 1.66108E+7 9047.93 1.66108E+7 9047.93 0.000417758 2.27554E-7 0.000373774 2.15245E-7 24.4062 0.0330061
7938 1.6577E+7 9032.97 1.6577E+7 9032.97 0.000419837 2.28775E-7 0.000375609 2.1639E-7 24.3992 0.0330125
7939 1.65468E+7 9019.68 1.65468E+7 9019.68 0.000422019 2.30045E-7 0.000377566 2.17593E-7 24.3922 0.0330183
7940 1.65315E+7 9010.15 1.65315E+7 9010.15 0.000424595 2.31418E-7 0.000379874 2.18892E-7 24.3852 0.0330161
7941 1.65133E+7 8999.72 1.65133E+7 8999.72 0.00042711 2.32777E-7 0.000382165 2.20188E-7 24.3781 0.0330152
7942 1.64962E+7 8989.73 1.64962E+7 8989.73 0.000429667 2.34153E-7 0.000384465 2.21493E-7 24.3711 0.033014
7943 1.64699E+7 8977.21 1.64699E+7 8977.21 0.000432 2.3547E-7 0.000386515 2.22731E-7 24.3641 0.0330172
7944 1.64531E+7 8967.29 1.64531E+7 8967.29 0.000434593 2.36865E-7 0.000388935 2.24079E-7 24.3571 0.0330159
7945 1.64323E+7 8956.32 1.64323E+7 8956.32 0.000437097 2.38239E-7 0.0003911 2.25356E-7 24.3501 0.0330166
7946 1.64158E+7 8946.41 1.64158E+7 8946.41 0.000439729 2.39649E-7 0.000393599 2.26731E-7 24.3431 0.0330149
7947 1.64097E+7 8939.32 1.64097E+7 8939.32 0.000442656 2.41142E-7 0.000396145 2.28122E-7 24.3361 0.0330079
7948 1.63728E+7 8924.2 1.63728E+7 8924.2 0.000444769 2.42428E-7 0.000398143 2.29368E-7 24.3291 0.0330171
7949 1.63617E+7 8915.7 1.63617E+7 8915.7 0.000447594 2.439E-7 0.000400699 2.3077E-7 24.3221 0.0330125
7950 1.63409E+7 8904.7 1.63409E+7 8904.7 0.000450167 2.45313E-7 0.000402887 2.32072E-7 24.3151 0.0330132
7951 1.63141E+7 8891.97 1.63141E+7 8891.97 0.000452588 2.46685E-7 0.00040513 2.33392E-7 24.3081 0.0330167
7952 1.62977E+7 8882.74 1.62977E+7 8882.74 0.000455313 2.48161E-7 0.000407529 2.34779E-7 24.3011 0.0330161
7953 1.62773E+7 8871.8 1.62773E+7 8871.8 0.000457941 2.49599E-7 0.000410043 2.36185E-7 24.294 0.0330165
7954 1.62583E+7 8861.58 1.62583E+7 8861.58 0.000460623 2.51064E-7 0.000412424 2.37568E-7 24.287 0.0330167
7955 1.62486E+7 8853.92 1.62486E+7 8853.92 0.000463588 2.52612E-7 0.000415126 2.39046E-7 24.28 0.0330122
7956 1.62364E+7 8845.29 1.62364E+7 8845.29 0.000466499 2.54141E-7 0.000417748 2.40498E-7 24.273 0.0330086
7957 1.6194E+7 8828.82 1.6194E+7 8828.82 0.00046855 2.55452E-7 0.000419502 2.41713E-7 24.266 0.033021
7958 1.61756E+7 8818.31 1.61756E+7 8818.31 0.000471309 2.56941E-7 0.000422039 2.4314E-7 24.259 0.0330201
7959 1.61623E+7 8810.21 1.61623E+7 8810.21 0.000474234 2.5851E-7 0.000424685 2.44633E-7 24.252 0.0330185
7960 1.61525E+7 8802.21 1.61525E+7 8802.21 0.000477279 2.60092E-7 0.000427424 2.46135E-7 24.245 0.0330135
7961 1.61146E+7 8786.36 1.61146E+7 8786.36 0.000479507 2.61449E-7 0.000429586 2.47464E-7 24.238 0.0330225
7962 1.61261E+7 8784.54 1.61261E+7 8784.54 0.000483223 2.63234E-7 0.000432915 2.49155E-7 24.231 0.0330074
7963 1.60898E+7 8769.78 1.60898E+7 8769.78 0.000485529 2.6464E-7 0.00043495 2.50479E-7 24.224 0.0330168
7964 1.60779E+7 8761.49 1.60779E+7 8761.49 0.00048858 2.66249E-7 0.00043773 2.52015E-7 24.217 0.0330134
7965 1.60513E+7 8748.91 1.60513E+7 8748.91 0.000491203 2.67736E-7 0.000440018 2.53403E-7 24.21 0.033017
7966 1.60397E+7 8740.99 1.60397E+7 8740.99 0.000494297 2.69375E-7 0.00044295 2.55002E-7 24.2029 0.033014
7967 1.60163E+7 8729.26 1.60163E+7 8729.26 0.000497046 2.70905E-7 0.000445326 2.56424E-7 24.1959 0.033016
7968 1.6001E+7 8720.1 1.6001E+7 8720.1 0.000500068 2.72525E-7 0.000448011 2.57952E-7 24.1889 0.0330143
7969 1.59863E+7 8711.02 1.59863E+7 8711.02 0.000503122 2.74155E-7 0.000450834 2.59518E-7 24.1819 0.0330123
7970 1.59598E+7 8698.97 1.59598E+7 8698.97 0.000505819 2.75701E-7 0.000453295 2.60997E-7 24.1749 0.0330168
7971 1.59457E+7 8689.76 1.59457E+7 8689.76 0.000508927 2.77346E-7 0.000456009 2.6253E-7 24.1679 0.033014
7972 1.59305E+7 8680.71 1.59305E+7 8680.71 0.000512016 2.79006E-7 0.000458866 2.64129E-7 24.1609 0.0330125
7973 1.58909E+7 8664.66 1.58909E+7 8664.66 0.000514335 2.80447E-7 0.000460994 2.65507E-7 24.1539 0.033023
7974 1.58917E+7 8660.21 1.58917E+7 8660.21 0.000517977 2.82275E-7 0.000464276 2.67244E-7 24.1469 0.0330138
7975 1.58717E+7 8649.65 1.58717E+7 8649.65 0.000520967 2.83914E-7 0.000466865 2.68771E-7 24.1399 0.0330144
7976 1.5849E+7 8638.06 1.5849E+7 8638.06 0.000523878 2.85527E-7 0.000469538 2.70316E-7 24.1329 0.0330159
7977 1.58379E+7 8630.37 1.58379E+7 8630.37 0.000527191 2.87279E-7 0.000472531 2.71975E-7 24.1259 0.0330128
7978 1.58215E+7 8620.51 1.58215E+7 8620.51 0.000530351 2.8897E-7 0.000475451 2.73606E-7 24.1189 0.033011
7979 1.57892E+7 8606.63 1.57892E+7 8606.63 0.00053299 2.90533E-7 0.000477659 2.7504E-7 24.1118 0.0330181
7980 1.57806E+7 8599.29 1.57806E+7 8599.29 0.000536444 2.92326E-7 0.000480937 2.76788E-7 24.1048 0.033013
7981 5.12097E+10 2.79105E+7 5.12097E+10 2.79105E+7 1.75306 0.000955465 1.57176 0.000904713 24.0978 0.0330159
7982 5.10971E+10 2.78632E+7 5.10971E+10 2.78632E+7 1.76151 0.000960559 1.57946 0.00090957 24.0908 0.0330243
7983 5.11188E+10 2.7855E+7 5.11188E+10 2.7855E+7 1.77466 0.000967031 1.59123 0.000915705 24.0838 0.0330124
7984 5.09613E+10 2.77955E+7 5.09613E+10 2.77955E+7 1.78163 0.000971749 1.59745 0.000920153 24.0768 0.033028
7985 5.09492E+10 2.77784E+7 5.09492E+10 2.77784E+7 1.79373 0.000977979 1.60853 0.000926132 24.0698 0.0330218
7986 5.08766E+10 2.77422E+7 5.08766E+10 2.77422E+7 1.80376 0.00098357 1.61717 0.000931321 24.0628 0.0330238
7987 5.08803E+10 2.77298E+7 5.08803E+10 2.77298E+7 1.81658 0.000990046 1.62929 0.000937619 24.0558 0.0330152
7988 5.07819E+10 2.76872E+7 5.07819E+10 2.76872E+7 1.82583 0.000995478 1.63776 0.000942818 24.0488 0.0330218
7989 5.07219E+10 2.76568E+7 5.07219E+10 2.76568E+7 1.83648 0.00100137 1.64691 0.000948288 24.0418 0.0330232
7990 5.06848E+10 2.76318E+7 5.06848E+10 2.76318E+7 1.84804 0.0010075 1.65784 0.00095426 24.0348 0.0330203
7991 5.05959E+10 2.75925E+7 5.05959E+10 2.75925E+7 1.85779 0.00101315 1.6669 0.000959686 24.0278 0.0330258
7992 5.05639E+10 2.75701E+7 5.05639E+10 2.75701E+7 1.86967 0.00101945 1.67705 0.000965504 24.0207 0.0330229
7993 5.0533E+10 2.75471E+7 5.0533E+10 2.75471E+7 1.88166 0.00102576 1.68761 0.000971428 24.0137 0.0330191
7994 5.04469E+10 2.75086E+7 5.04469E+10 2.75086E+7 1.89166 0.00103153 1.69669 0.000976913 24.0067 0.0330243
7995 5.03994E+10 2.74813E+7 5.03994E+10 2.74813E+7 1.90318 0.00103776 1.70742 0.000982938 23.9997 0.0330234
7996 5.03366E+10 2.745E+7 5.03366E+10 2.745E+7 1.91418 0.00104386 1.71704 0.000988645 23.9927 0.0330252
7997 5.02529E+10 2.74118E+7 5.02529E+10 2.74118E+7 1.92442 0.00104974 1.72727 0.000994524 23.9857 0.0330297
7998 5.02093E+10 2.73863E+7 5.02093E+10 2.73863E+7 1.93628 0.00105614 1.7371 0.00100034 23.9787 0.0330286
7999 5.01709E+10 2.73617E+7 5.01709E+10 2.73617E+7 1.9484 0.00106261 1.74812 0.00100652 23.9717 0.0330264
8000 5.01293E+10 2.7336E+7 5.01293E+10 2.7336E+7 1.96048 0.00106908 1.75982 0.00101289 23.9647 0.0330246
