# Instrument-source: 'mcstasscript_soleil_rock_111.instr'
# Date: Fri Jan 27 01 06 2023
# Ncount: 10000000
# Numpoints: 1601
# Param: Etohit = 11600
# type: multiarray_1d(1601)
# title: Scan of Etohit
# xlabel: 'Etohit'
# ylabel: 'Intensity'
# xvars: Etohit
# yvars: (EnergyMonitor_before_sample_I,EnergyMonitor_before_sample_ERR) (e_repartition_after_m2b_I,e_repartition_after_m2b_ERR) (EnergyMonitor_after_sample_I,EnergyMonitor_after_sample_ERR) (psd_monitor_I,psd_monitor_ERR) (absorption_coefficient_I,absorption_coefficient_ERR)
# xlimits: 11600 13200
# filename: mccode.dat
# variables: Etohit EnergyMonitor_before_sample_I EnergyMonitor_before_sample_ERR e_repartition_after_m2b_I e_repartition_after_m2b_ERR EnergyMonitor_after_sample_I EnergyMonitor_after_sample_ERR psd_monitor_I psd_monitor_ERR absorption_coefficient_I absorption_coefficient_ERR
11600 3.4804E+8 190158 3.4804E+8 190158 101.973 0.0557146 100.137 0.055211 15.0431 0.0330565
11601 3.47351E+8 189876 3.47351E+8 189876 102.137 0.0558323 100.304 0.0553292 15.0395 0.0330648
11602 3.47066E+8 189709 3.47066E+8 189709 102.421 0.0559841 100.573 0.055477 15.0359 0.0330638
11603 3.469E+8 189573 3.469E+8 189573 102.74 0.0561453 100.901 0.0556404 15.0323 0.0330599
11604 3.46494E+8 189369 3.46494E+8 189369 102.99 0.0562868 101.141 0.0557793 15.0287 0.0330614
11605 3.46101E+8 189170 3.46101E+8 189170 103.243 0.0564301 101.394 0.0559227 15.0252 0.0330629
11606 3.45879E+8 189027 3.45879E+8 189027 103.548 0.0565901 101.694 0.0560813 15.0216 0.0330609
11607 3.45607E+8 188862 3.45607E+8 188862 103.839 0.0567445 101.989 0.0562369 15.018 0.0330595
11608 3.45165E+8 188652 3.45165E+8 188652 104.08 0.0568854 102.208 0.0563714 15.0144 0.0330623
11609 3.45168E+8 188570 3.45168E+8 188570 104.455 0.0570652 102.59 0.0565535 15.0108 0.0330549
11610 3.44667E+8 188337 3.44667E+8 188337 104.679 0.0572 102.822 0.0566903 15.0072 0.0330585
11611 3.43862E+8 188022 3.43862E+8 188022 104.81 0.0573099 102.941 0.0567967 15.0036 0.0330695
11612 3.43874E+8 187943 3.43874E+8 187943 105.192 0.0574922 103.305 0.0569744 15 0.033062
11613 3.43535E+8 187756 3.43535E+8 187756 105.466 0.0576416 103.59 0.0571267 14.9964 0.0330618
11614 3.43348E+8 187619 3.43348E+8 187619 105.788 0.0578068 103.899 0.0572882 14.9928 0.0330587
11615 3.42822E+8 187384 3.42822E+8 187384 106.006 0.0579424 104.106 0.0574209 14.9892 0.0330634
11616 3.42557E+8 187226 3.42557E+8 187226 106.306 0.0581021 104.405 0.0575805 14.9856 0.0330623
11617 3.42488E+8 187114 3.42488E+8 187114 106.667 0.0582761 104.76 0.057753 14.982 0.0330556
11618 3.41719E+8 186813 3.41719E+8 186813 106.81 0.0583919 104.913 0.0578711 14.9784 0.0330662
11619 3.41634E+8 186708 3.41634E+8 186708 107.169 0.0585693 105.254 0.0580438 14.9748 0.033061
11620 3.41265E+8 186516 3.41265E+8 186516 107.438 0.0587197 105.515 0.0581919 14.9713 0.0330619
11621 3.40916E+8 186328 3.40916E+8 186328 107.715 0.0588715 105.793 0.0583439 14.9677 0.0330621
11622 3.4047E+8 186116 3.4047E+8 186116 107.961 0.0590164 106.04 0.058489 14.9641 0.033065
11623 3.4052E+8 186047 3.4052E+8 186047 108.365 0.0592067 106.446 0.0586802 14.9605 0.0330564
11624 3.39845E+8 185772 3.39845E+8 185772 108.54 0.0593321 106.624 0.058806 14.9569 0.0330647
11625 3.39802E+8 185666 3.39802E+8 185666 108.917 0.0595116 106.991 0.0589833 14.9533 0.0330574
11626 3.39015E+8 185363 3.39015E+8 185363 109.056 0.0596284 107.11 0.059094 14.9497 0.0330687
11627 3.39215E+8 185336 3.39215E+8 185336 109.513 0.0598344 107.567 0.0593003 14.9461 0.0330565
11628 3.38612E+8 185077 3.38612E+8 185077 109.712 0.0599659 107.765 0.0594313 14.9425 0.0330629
11629 3.38036E+8 184830 3.38036E+8 184830 109.92 0.0601015 107.981 0.0595692 14.9389 0.0330689
11630 3.37941E+8 184717 3.37941E+8 184717 110.284 0.0602808 108.322 0.0597423 14.9353 0.0330634
11631 3.37701E+8 184564 3.37701E+8 184564 110.603 0.0604478 108.644 0.0599103 14.9317 0.0330615
11632 3.37401E+8 184391 3.37401E+8 184391 110.902 0.0606085 108.949 0.0600724 14.9281 0.0330607
11633 3.36834E+8 184149 3.36834E+8 184149 111.114 0.0607467 109.16 0.0602105 14.9245 0.0330668
11634 3.3699E+8 184107 3.3699E+8 184107 111.566 0.0609517 109.609 0.0604148 14.9209 0.0330553
11635 3.36464E+8 183872 3.36464E+8 183872 111.793 0.0610932 109.822 0.0605525 14.9174 0.03306
11636 3.35789E+8 183595 3.35789E+8 183595 111.97 0.0612206 109.992 0.0606775 14.9138 0.0330683
11637 3.35977E+8 183561 3.35977E+8 183561 112.436 0.0614295 110.439 0.0608817 14.9102 0.033056
11638 3.35288E+8 183280 3.35288E+8 183280 112.61 0.0615564 110.621 0.0610104 14.9066 0.0330646
11639 3.3496E+8 183110 3.3496E+8 183110 112.904 0.0617207 110.908 0.0611726 14.903 0.0330655
11640 3.34652E+8 182940 3.34652E+8 182940 113.207 0.0618852 111.217 0.0613387 14.8994 0.0330653
11641 3.34645E+8 182846 3.34645E+8 182846 113.612 0.0620765 111.634 0.0615339 14.8958 0.0330572
11642 3.34289E+8 182659 3.34289E+8 182659 113.9 0.062236 111.914 0.0616912 14.8922 0.0330578
11643 3.33643E+8 182396 3.33643E+8 182396 114.089 0.0623702 112.088 0.0618211 14.8886 0.0330661
11644 3.3368E+8 182319 3.3368E+8 182319 114.512 0.0625682 112.502 0.0620168 14.885 0.0330572
11645 3.32976E+8 182035 3.32976E+8 182035 114.682 0.0626955 112.683 0.0621471 14.8814 0.0330663
11646 3.32897E+8 181925 3.32897E+8 181925 115.068 0.0628835 113.057 0.0623317 14.8778 0.0330603
11647 3.32227E+8 181648 3.32227E+8 181648 115.249 0.0630137 113.237 0.0624611 14.8742 0.0330684
11648 3.3224E+8 181568 3.3224E+8 181568 115.669 0.0632127 113.627 0.0626525 14.8706 0.0330605
11649 3.32089E+8 181444 3.32089E+8 181444 116.032 0.0633968 114.006 0.0628407 14.867 0.0330567
11650 3.31571E+8 181211 3.31571E+8 181211 116.268 0.0635433 114.225 0.0629824 14.8635 0.0330612
11651 3.31287E+8 181044 3.31287E+8 181044 116.587 0.0637132 114.551 0.0631544 14.8599 0.0330601
11652 3.30962E+8 180871 3.30962E+8 180871 116.892 0.0638813 114.854 0.0633219 14.8563 0.0330606
11653 3.3021E+8 180575 3.3021E+8 180575 117.046 0.0640067 115.001 0.0634452 14.8527 0.0330711
11654 3.30377E+8 180535 3.30377E+8 180535 117.527 0.064223 115.468 0.0636582 14.8491 0.0330592
11655 3.29856E+8 180302 3.29856E+8 180302 117.764 0.0643709 115.703 0.0638053 14.8455 0.0330639
11656 3.29242E+8 180040 3.29242E+8 180040 117.968 0.0645088 115.911 0.0639437 14.8419 0.0330706
11657 3.29046E+8 179906 3.29046E+8 179906 118.322 0.0646926 116.259 0.064126 14.8383 0.0330681
11658 3.28992E+8 179807 3.28992E+8 179807 118.728 0.0648901 116.67 0.0643248 14.8347 0.0330618
11659 3.28497E+8 179575 3.28497E+8 179575 118.977 0.0650394 116.896 0.0644681 14.8311 0.0330653
11660 3.28117E+8 179394 3.28117E+8 179394 119.267 0.0652078 117.179 0.0646343 14.8275 0.0330677
11661 3.27975E+8 179263 3.27975E+8 179263 119.644 0.0653946 117.581 0.0648286 14.8239 0.0330628
11662 3.27805E+8 179132 3.27805E+8 179132 120.013 0.0655823 117.925 0.0650095 14.8203 0.0330593
11663 3.27408E+8 178934 3.27408E+8 178934 120.299 0.0657455 118.204 0.0651706 14.8167 0.033061
11664 3.27262E+8 178807 3.27262E+8 178807 120.678 0.0659354 118.59 0.0653624 14.8131 0.0330567
11665 3.26969E+8 178646 3.26969E+8 178646 121.004 0.0661133 118.89 0.0655334 14.8095 0.0330566
11666 3.26526E+8 178433 3.26526E+8 178433 121.275 0.0662719 119.162 0.0656921 14.806 0.0330593
11667 3.26293E+8 178288 3.26293E+8 178288 121.625 0.0664566 119.513 0.0658771 14.8024 0.0330577
11668 3.25825E+8 178070 3.25825E+8 178070 121.888 0.0666142 119.797 0.0660407 14.7988 0.0330612
11669 3.25685E+8 177958 3.25685E+8 177958 122.274 0.0668121 120.152 0.06623 14.7952 0.0330579
11670 3.2539E+8 177790 3.2539E+8 177790 122.603 0.0669895 120.497 0.0664115 14.7916 0.0330573
11671 3.25284E+8 177680 3.25284E+8 177680 123.005 0.0671888 120.882 0.0666069 14.788 0.0330524
11672 3.24738E+8 177438 3.24738E+8 177438 123.24 0.0673389 121.116 0.066756 14.7844 0.0330577
11673 3.24254E+8 177231 3.24254E+8 177231 123.499 0.0675027 121.369 0.066918 14.7808 0.033063
11674 3.24014E+8 177073 3.24014E+8 177073 123.852 0.0676849 121.702 0.0670945 14.7772 0.0330605
11675 3.23617E+8 176886 3.23617E+8 176886 124.146 0.0678569 122.004 0.0672689 14.7736 0.0330633
11676 3.23244E+8 176698 3.23244E+8 176698 124.449 0.0680291 122.292 0.067437 14.77 0.0330648
11677 3.22924E+8 176522 3.22924E+8 176522 124.773 0.0682058 122.637 0.0676194 14.7664 0.0330647
11678 3.22464E+8 176313 3.22464E+8 176313 125.045 0.0683705 122.885 0.0677773 14.7628 0.0330687
11679 3.22558E+8 176256 3.22558E+8 176256 125.531 0.0685941 123.366 0.0680001 14.7592 0.0330585
11680 3.22311E+8 176106 3.22311E+8 176106 125.881 0.0687791 123.705 0.0681822 14.7557 0.033057
11681 3.22124E+8 175975 3.22124E+8 175975 126.228 0.068958 124.066 0.0683647 14.7524 0.0330544
11682 3.21428E+8 175700 3.21428E+8 175700 126.357 0.0690694 124.181 0.068472 14.7492 0.0330642
11683 3.21412E+8 175608 3.21412E+8 175608 126.751 0.069252 124.567 0.0686528 14.746 0.0330564
11684 3.20751E+8 175343 3.20751E+8 175343 126.891 0.0693666 124.703 0.0687661 14.7428 0.0330655
11685 3.20909E+8 175304 3.20909E+8 175304 127.356 0.0695712 125.151 0.0689665 14.7397 0.0330537
11686 3.20275E+8 175047 3.20275E+8 175047 127.507 0.0696895 125.319 0.069089 14.7365 0.0330622
11687 3.20137E+8 174925 3.20137E+8 174925 127.856 0.0698617 125.657 0.0692584 14.7334 0.0330578
11688 3.19763E+8 174737 3.19763E+8 174737 128.111 0.0700078 125.922 0.0694072 14.7302 0.0330593
11689 3.1937E+8 174548 3.1937E+8 174548 128.36 0.0701536 126.15 0.0695471 14.727 0.0330617
11690 3.18943E+8 174347 3.18943E+8 174347 128.594 0.0702946 126.403 0.0696932 14.7239 0.0330647
11691 3.18694E+8 174193 3.18694E+8 174193 128.901 0.0704555 126.706 0.0698528 14.7207 0.0330632
11692 3.18637E+8 174094 3.18637E+8 174094 129.286 0.0706384 127.096 0.0700373 14.7175 0.0330566
11693 3.17973E+8 173827 3.17973E+8 173827 129.426 0.0707536 127.197 0.0701417 14.7144 0.0330658
11694 3.17777E+8 173698 3.17777E+8 173698 129.756 0.0709251 127.535 0.0703156 14.7112 0.0330636
11695 3.17788E+8 173616 3.17788E+8 173616 130.172 0.0711167 127.952 0.0705075 14.708 0.0330553
11696 3.17283E+8 173541 3.17283E+8 173541 130.377 0.0713116 128.164 0.070704 14.7049 0.0330745
11697 3.12395E+8 182058 3.12395E+8 182058 128.771 0.0750643 126.568 0.0744184 14.7017 0.0341425
11698 2.85285E+8 225790 2.85285E+8 225790 117.956 0.0934224 115.946 0.0926252 14.6987 0.0397928
11699 2.75278E+8 240053 2.75278E+8 240053 114.205 0.0995555 112.233 0.0986894 14.6953 0.0417584
11700 3.00787E+8 200019 3.00787E+8 200019 125.186 0.0831963 123.06 0.082485 14.6921 0.0364633
11701 3.1539E+8 173984 3.1539E+8 173984 131.667 0.0726308 129.409 0.0720051 14.689 0.0332156
11702 3.15333E+8 172371 3.15333E+8 172371 132.06 0.0721882 129.804 0.0715691 14.6859 0.0330645
11703 3.15302E+8 172273 3.15302E+8 172273 132.465 0.0723756 130.219 0.0717594 14.6827 0.0330568
11704 3.1486E+8 172069 3.1486E+8 172069 132.699 0.0725189 130.447 0.0719012 14.6796 0.0330604
11705 3.14666E+8 171931 3.14666E+8 171931 133.037 0.0726907 130.79 0.072074 14.6764 0.0330573
11706 3.14478E+8 171799 3.14478E+8 171799 133.379 0.0728649 131.125 0.0722465 14.6732 0.0330544
11707 3.14049E+8 171592 3.14049E+8 171592 133.62 0.073008 131.356 0.0723869 14.6701 0.0330571
11708 3.1398E+8 171496 3.1398E+8 171496 134.014 0.0731984 131.746 0.0725765 14.6669 0.0330515
11709 3.13419E+8 171261 3.13419E+8 171261 134.198 0.0733295 131.906 0.0727008 14.6637 0.0330584
11710 3.13055E+8 171079 3.13055E+8 171079 134.467 0.073484 132.183 0.0728573 14.6606 0.03306
11711 3.12667E+8 170882 3.12667E+8 170882 134.726 0.073632 132.442 0.0730053 14.6574 0.0330615
11712 3.12372E+8 170722 3.12372E+8 170722 135.025 0.073796 132.75 0.0731716 14.6542 0.0330616
11713 3.12114E+8 170572 3.12114E+8 170572 135.342 0.0739649 133.081 0.0733447 14.6511 0.0330607
11714 3.12103E+8 170488 3.12103E+8 170488 135.766 0.0741627 133.489 0.0735384 14.6479 0.0330532
11715 3.11528E+8 170240 3.11528E+8 170240 135.945 0.0742898 133.637 0.0736562 14.6447 0.0330596
11716 3.10978E+8 170012 3.10978E+8 170012 136.135 0.0744254 133.824 0.0737909 14.6416 0.0330666
11717 3.10976E+8 169936 3.10976E+8 169936 136.566 0.0746279 134.25 0.0739927 14.6384 0.0330593
11718 3.1077E+8 169792 3.1077E+8 169792 136.908 0.074801 134.598 0.0741673 14.6353 0.0330562
11719 3.10278E+8 169577 3.10278E+8 169577 137.125 0.0749433 134.814 0.0743092 14.6321 0.0330616
11720 3.10206E+8 169475 3.10206E+8 169475 137.527 0.0751356 135.193 0.0744951 14.6289 0.0330555
11721 3.09676E+8 169246 3.09676E+8 169246 137.728 0.0752718 135.419 0.0746379 14.6258 0.0330613
11722 3.09417E+8 169097 3.09417E+8 169097 138.049 0.0754438 135.742 0.0748105 14.6226 0.0330606
11723 3.0918E+8 168952 3.0918E+8 168952 138.38 0.0756181 136.068 0.074984 14.6194 0.0330591
11724 3.08862E+8 168779 3.08862E+8 168779 138.676 0.07578 136.337 0.0751384 14.6163 0.0330592
11725 3.08501E+8 168600 3.08501E+8 168600 138.953 0.0759398 136.605 0.0752955 14.6131 0.0330609
11726 3.08262E+8 168450 3.08262E+8 168450 139.286 0.0761126 136.972 0.0754779 14.6099 0.033059
11727 3.07781E+8 168236 3.07781E+8 168236 139.509 0.076257 137.16 0.0756122 14.6068 0.0330639
11728 3.0779E+8 168156 3.0779E+8 168156 139.955 0.0764623 137.633 0.0758257 14.6036 0.0330555
11729 3.07348E+8 167955 3.07348E+8 167955 140.197 0.0766128 137.854 0.0759698 14.6004 0.0330595
11730 3.07024E+8 167781 3.07024E+8 167781 140.493 0.0767761 138.13 0.0761277 14.5973 0.0330598
11731 3.06674E+8 167606 3.06674E+8 167606 140.778 0.076939 138.431 0.0762952 14.5941 0.0330614
11732 3.0656E+8 167500 3.0656E+8 167500 141.171 0.0771339 138.797 0.0764824 14.5909 0.0330571
11733 3.06044E+8 167541 3.06044E+8 167541 141.381 0.0773982 139.037 0.0767533 14.5878 0.0330891
11734 3.05157E+8 171861 3.05157E+8 171861 141.417 0.0796536 139.042 0.0789766 14.5846 0.0335625
11735 2.99958E+8 197045 2.99958E+8 197045 139.445 0.0916445 137.13 0.0908737 14.5815 0.0362508
11736 2.90688E+8 238549 2.90688E+8 238549 135.563 0.11129 133.283 0.11036 14.5783 0.0405165
11737 2.89319E+8 245118 2.89319E+8 245118 135.36 0.114648 133.093 0.113697 14.5751 0.0411608
11738 2.97369E+8 207215 2.97369E+8 207215 139.569 0.0972041 137.261 0.0963942 14.5719 0.0373268
11739 3.02879E+8 174536 3.02879E+8 174536 142.602 0.0821598 140.237 0.0814693 14.5688 0.0339471
11740 3.04018E+8 166781 3.04018E+8 166781 143.591 0.0787708 141.207 0.0781128 14.5656 0.0331235
11741 3.03494E+8 165942 3.03494E+8 165942 143.798 0.0786246 141.404 0.0779674 14.5625 0.0330688
11742 3.03553E+8 165863 3.03553E+8 165863 144.281 0.078836 141.879 0.0781771 14.5593 0.0330577
11743 3.03315E+8 165704 3.03315E+8 165704 144.625 0.0790101 142.221 0.0783508 14.5561 0.0330548
11744 3.02812E+8 165488 3.02812E+8 165488 144.843 0.0791573 142.429 0.0784949 14.553 0.0330607
11745 3.0269E+8 165377 3.0269E+8 165377 145.243 0.0793547 142.84 0.0786956 14.5498 0.0330562
11746 3.02168E+8 165154 3.02168E+8 165154 145.453 0.079499 143.036 0.0788359 14.5466 0.0330624
11747 3.01893E+8 164997 3.01893E+8 164997 145.781 0.079675 143.367 0.0790131 14.5435 0.0330618
11748 3.01759E+8 164879 3.01759E+8 164879 146.178 0.0798707 143.766 0.0792091 14.5403 0.0330574
11749 3.01383E+8 164693 3.01383E+8 164693 146.458 0.0800333 144.013 0.0793625 14.5372 0.0330593
11750 3.00962E+8 164500 3.00962E+8 164500 146.718 0.0801929 144.287 0.079526 14.534 0.033063
11751 3.00589E+8 164317 3.00589E+8 164317 147 0.0803578 144.565 0.0796896 14.5308 0.0330651
11752 3.0033E+8 164168 3.0033E+8 164168 147.339 0.080539 144.91 0.0798727 14.5277 0.0330643
11753 3.00162E+8 164038 3.00162E+8 164038 147.723 0.0807306 145.291 0.0800629 14.5245 0.0330605
11754 2.99813E+8 163856 2.99813E+8 163856 148.019 0.0808964 145.593 0.0802308 14.5213 0.0330614
11755 2.99461E+8 163691 2.99461E+8 163691 148.314 0.0810711 145.867 0.0803994 14.5182 0.0330641
11756 2.99212E+8 163539 2.99212E+8 163539 148.66 0.0812527 146.202 0.0805783 14.515 0.0330625
11757 2.99091E+8 163427 2.99091E+8 163427 149.071 0.0814543 146.595 0.0807749 14.5118 0.0330579
11758 2.98478E+8 163177 2.98478E+8 163177 149.237 0.0815877 146.779 0.0809132 14.5087 0.0330666
11759 2.98561E+8 163117 2.98561E+8 163117 149.752 0.0818159 147.285 0.0811393 14.5055 0.0330558
11760 2.98366E+8 162979 2.98366E+8 162979 150.128 0.0820061 147.641 0.0813242 14.5023 0.0330527
11761 2.97816E+8 162750 2.97816E+8 162750 150.327 0.0821506 147.862 0.0814745 14.4992 0.03306
11762 2.97543E+8 162595 2.97543E+8 162595 150.665 0.0823322 148.194 0.0816546 14.496 0.0330593
11763 2.97233E+8 162431 2.97233E+8 162431 150.985 0.08251 148.499 0.0818284 14.4928 0.0330599
11764 2.96718E+8 162205 2.96718E+8 162205 151.201 0.0826563 148.736 0.0819802 14.4897 0.0330656
11765 2.96461E+8 162060 2.96461E+8 162060 151.549 0.0828439 149.052 0.0821586 14.4865 0.033065
11766 2.96019E+8 161860 2.96019E+8 161860 151.803 0.0830042 149.31 0.08232 14.4834 0.0330693
11767 2.96022E+8 161779 2.96022E+8 161779 152.286 0.0832256 149.789 0.0825409 14.4802 0.0330608
11768 2.95743E+8 161622 2.95743E+8 161622 152.624 0.083408 150.136 0.0827253 14.477 0.0330604
11769 2.95498E+8 161470 2.95498E+8 161470 152.981 0.083594 150.488 0.0829099 14.4739 0.0330585
11770 2.95484E+8 161391 2.95484E+8 161391 153.459 0.0838176 150.953 0.0831308 14.4707 0.0330512
11771 2.94875E+8 161146 2.94875E+8 161146 153.628 0.0839559 151.115 0.0832667 14.4675 0.0330602
11772 2.94702E+8 161012 2.94702E+8 161012 154.024 0.0841521 151.513 0.0834636 14.4644 0.0330562
11773 2.94231E+8 160808 2.94231E+8 160808 154.265 0.0843115 151.745 0.0836202 14.4612 0.0330616
11774 2.93945E+8 160651 2.93945E+8 160651 154.604 0.0844964 152.071 0.0838016 14.458 0.0330616
11775 2.93475E+8 160437 2.93475E+8 160437 154.846 0.0846517 152.318 0.0839575 14.4549 0.033066
11776 2.93264E+8 160305 2.93264E+8 160305 155.225 0.0848496 152.708 0.0841584 14.4517 0.0330643
11777 2.93009E+8 160154 2.93009E+8 160154 155.582 0.0850387 153.048 0.0843431 14.4485 0.0330631
11778 2.92853E+8 160038 2.92853E+8 160038 155.992 0.0852466 153.452 0.08455 14.4454 0.0330599
11779 2.92574E+8 159881 2.92574E+8 159881 156.337 0.0854327 153.783 0.0847321 14.4422 0.0330595
11780 2.92162E+8 159690 2.92162E+8 159690 156.612 0.0856008 154.066 0.0849023 14.439 0.033063
11781 2.91997E+8 159568 2.91997E+8 159568 157.019 0.0858065 154.479 0.0851101 14.4359 0.0330597
11782 2.91614E+8 159390 2.91614E+8 159390 157.31 0.0859826 154.725 0.085273 14.4327 0.0330629
11783 2.91525E+8 159284 2.91525E+8 159284 157.761 0.086198 155.21 0.0854986 14.4296 0.0330571
11784 2.91148E+8 159101 2.91148E+8 159101 158.056 0.0863719 155.497 0.0856702 14.4264 0.0330594
11785 2.90752E+8 158920 2.90752E+8 158920 158.342 0.0865468 155.769 0.0858409 14.4232 0.033063
11786 2.90648E+8 158811 2.90648E+8 158811 158.787 0.0867617 156.214 0.0860561 14.4201 0.0330576
11787 2.90147E+8 158595 2.90147E+8 158595 159.016 0.086918 156.443 0.0862119 14.4169 0.0330636
11788 2.89916E+8 158462 2.89916E+8 158462 159.393 0.0871209 156.808 0.086412 14.4137 0.033063
11789 2.89822E+8 158360 2.89822E+8 158360 159.846 0.0873404 157.267 0.0866332 14.4106 0.0330577
11790 2.89423E+8 158169 2.89423E+8 158169 160.131 0.0875115 157.524 0.0867961 14.4074 0.0330605
11791 2.89153E+8 158020 2.89153E+8 158020 160.489 0.0877065 157.897 0.086995 14.4042 0.0330604
11792 2.89021E+8 157902 2.89021E+8 157902 160.925 0.0879183 158.332 0.0872072 14.4011 0.0330555
11793 2.88562E+8 157703 2.88562E+8 157703 161.177 0.0880854 158.576 0.0873718 14.3979 0.033061
11794 2.8827E+8 157540 2.8827E+8 157540 161.516 0.0882688 158.896 0.0875505 14.3948 0.0330606
11795 2.87908E+8 157369 2.87908E+8 157369 161.81 0.0884445 159.21 0.0877316 14.3917 0.0330634
11796 2.8773E+8 157242 2.8773E+8 157242 162.208 0.0886452 159.6 0.0879298 14.3887 0.0330603
11797 2.87383E+8 157077 2.87383E+8 157077 162.512 0.0888253 159.892 0.0881064 14.3856 0.0330629
11798 2.86996E+8 156888 2.86996E+8 156888 162.792 0.0889912 160.177 0.0882738 14.3825 0.0330652
11799 2.8685E+8 156765 2.8685E+8 156765 163.211 0.0891959 160.594 0.0884781 14.3794 0.0330607
11800 2.86713E+8 156660 2.86713E+8 156660 163.636 0.0894105 160.998 0.088687 14.3764 0.0330575
11801 2.86301E+8 156468 2.86301E+8 156468 163.904 0.0895756 161.26 0.0888504 14.3733 0.033061
11802 2.85946E+8 156294 2.85946E+8 156294 164.204 0.0897518 161.559 0.0890262 14.3702 0.0330632
11803 2.85492E+8 156091 2.85492E+8 156091 164.449 0.0899113 161.812 0.0891876 14.3671 0.0330679
11804 2.85418E+8 155990 2.85418E+8 155990 164.913 0.0901302 162.259 0.0894021 14.3641 0.0330616
11805 2.85122E+8 155835 2.85122E+8 155835 165.249 0.0903179 162.607 0.089593 14.361 0.0330623
11806 2.85119E+8 155757 2.85119E+8 155757 165.756 0.0905503 163.098 0.0898219 14.3579 0.0330541
11807 2.84583E+8 155534 2.84583E+8 155534 165.954 0.0906997 163.275 0.0899646 14.3548 0.0330616
11808 2.84445E+8 155416 2.84445E+8 155416 166.385 0.0909098 163.716 0.090178 14.3517 0.033057
11809 2.83725E+8 155147 2.83725E+8 155147 166.474 0.091032 163.821 0.0903036 14.3487 0.0330703
11810 2.83833E+8 155100 2.83833E+8 155100 167.051 0.0912847 164.387 0.0905538 14.3456 0.033059
11811 2.83576E+8 154953 2.83576E+8 154953 167.414 0.0914794 164.709 0.0907377 14.3425 0.0330583
11812 2.83208E+8 154773 2.83208E+8 154773 167.711 0.0916544 165.025 0.0909174 14.3394 0.0330606
11813 2.82781E+8 154585 2.82781E+8 154585 167.974 0.0918249 165.281 0.0910855 14.3364 0.0330654
11814 2.82726E+8 154491 2.82726E+8 154491 168.459 0.0920514 165.763 0.0913118 14.3333 0.0330585
11815 2.82522E+8 154361 2.82522E+8 154361 168.856 0.0922573 166.147 0.0915144 14.3302 0.0330566
11816 2.82279E+8 154223 2.82279E+8 154223 169.23 0.0924588 166.518 0.0917151 14.3271 0.033056
11817 2.81835E+8 154031 2.81835E+8 154031 169.484 0.0926285 166.769 0.0918838 14.3241 0.0330615
11818 2.81741E+8 153937 2.81741E+8 153937 169.95 0.092857 167.248 0.0921162 14.321 0.0330569
11819 2.81315E+8 153747 2.81315E+8 153747 170.215 0.0930274 167.52 0.0922879 14.3179 0.0330614
11820 2.81085E+8 153617 2.81085E+8 153617 170.6 0.0932351 167.86 0.0924838 14.3148 0.0330609
11821 2.80784E+8 153459 2.80784E+8 153459 170.942 0.0934264 168.209 0.0926769 14.3118 0.0330617
11822 2.80509E+8 153310 2.80509E+8 153310 171.301 0.0936231 168.569 0.0928737 14.3087 0.0330618
11823 2.8033E+8 153188 2.8033E+8 153188 171.719 0.0938367 168.98 0.0930859 14.3056 0.0330592
11824 2.79964E+8 153018 2.79964E+8 153018 172.023 0.0940214 169.298 0.0932735 14.3025 0.0330625
11825 2.7971E+8 152881 2.7971E+8 152881 172.396 0.0942268 169.677 0.0934809 14.2995 0.0330627
11826 2.79638E+8 152792 2.79638E+8 152792 172.883 0.0944619 170.149 0.0937122 14.2964 0.0330573
11827 2.79012E+8 152547 2.79012E+8 152547 173.027 0.0946009 170.272 0.093845 14.2933 0.0330678
11828 2.78922E+8 152451 2.78922E+8 152451 173.504 0.0948323 170.753 0.0940779 14.2902 0.0330627
11829 2.78812E+8 152348 2.78812E+8 152348 173.97 0.0950601 171.226 0.0943078 14.2872 0.0330581
11830 2.78536E+8 152203 2.78536E+8 152203 174.333 0.0952622 171.577 0.0945066 14.2841 0.0330587
11831 2.78162E+8 152034 2.78162E+8 152034 174.635 0.0954495 171.865 0.0946895 14.281 0.0330625
11832 2.77749E+8 151847 2.77749E+8 151847 174.912 0.0956255 172.157 0.0948694 14.2779 0.0330668
11833 2.7776E+8 151776 2.7776E+8 151776 175.458 0.0958754 172.664 0.0951092 14.2749 0.0330584
11834 2.77298E+8 151582 2.77298E+8 151582 175.706 0.0960483 172.935 0.0952878 14.2718 0.0330649
11835 2.77104E+8 151459 2.77104E+8 151459 176.124 0.0962656 173.337 0.0955009 14.2687 0.0330629
11836 2.77101E+8 151392 2.77101E+8 151392 176.664 0.0965194 173.876 0.0957543 14.2656 0.0330558
11837 2.76771E+8 151229 2.76771E+8 151229 176.998 0.0967123 174.211 0.0959482 14.2626 0.0330576
11838 2.76405E+8 151060 2.76405E+8 151060 177.308 0.0969019 174.54 0.0961428 14.2595 0.0330611
11839 2.76186E+8 150929 2.76186E+8 150929 177.713 0.0971161 174.897 0.0963436 14.2564 0.0330598
11840 2.7605E+8 150823 2.7605E+8 150823 178.173 0.0973469 175.388 0.0965835 14.2533 0.0330564
11841 2.75672E+8 150644 2.75672E+8 150644 178.476 0.0975307 175.683 0.0967645 14.2503 0.0330594
11842 2.75653E+8 150570 2.75653E+8 150570 179.014 0.0977833 176.19 0.097009 14.2472 0.0330524
11843 2.75268E+8 150388 2.75268E+8 150388 179.315 0.0979662 176.512 0.0971977 14.2441 0.0330556
11844 2.74993E+8 150246 2.74993E+8 150246 179.687 0.0981744 176.865 0.0974001 14.241 0.0330564
11845 2.74634E+8 150078 2.74634E+8 150078 180.005 0.098367 177.193 0.0975957 14.238 0.0330596
11846 2.74351E+8 149933 2.74351E+8 149933 180.374 0.0985748 177.551 0.0978006 14.2349 0.0330606
11847 2.73957E+8 149755 2.73957E+8 149755 180.67 0.0987606 177.837 0.0979835 14.2318 0.0330646
11848 2.73883E+8 149659 2.73883E+8 149659 181.177 0.0990015 178.361 0.0982293 14.2287 0.0330586
11849 2.7374E+8 149553 2.7374E+8 149553 181.64 0.0992357 178.817 0.0984615 14.2257 0.0330554
11850 2.73275E+8 149353 2.73275E+8 149353 181.89 0.0994082 179.042 0.0986269 14.2226 0.0330614
11851 2.73296E+8 149292 2.73296E+8 149292 182.464 0.0996744 179.612 0.0988921 14.2195 0.0330535
11852 2.72665E+8 149046 2.72665E+8 149046 182.604 0.0998165 179.741 0.0990313 14.2164 0.0330644
11853 2.72657E+8 148975 2.72657E+8 148975 183.161 0.100076 180.323 0.0992981 14.2134 0.033057
11854 2.72208E+8 148783 2.72208E+8 148783 183.423 0.100255 180.542 0.0994644 14.2103 0.0330629
11855 2.72121E+8 148690 2.72121E+8 148690 183.929 0.100501 181.055 0.0997133 14.2072 0.0330579
11856 2.71649E+8 148487 2.71649E+8 148487 184.175 0.100673 181.277 0.0998776 14.2041 0.033064
11857 2.71623E+8 148416 2.71623E+8 148416 184.725 0.100935 181.831 0.100141 14.2011 0.0330577
11858 2.71159E+8 148215 2.71159E+8 148215 184.976 0.101108 182.126 0.100326 14.198 0.0330636
11859 2.7105E+8 148112 2.7105E+8 148112 185.471 0.101349 182.575 0.100554 14.1949 0.0330587
11860 2.7057E+8 147917 2.7057E+8 147917 185.711 0.101526 182.827 0.100734 14.1918 0.0330662
11861 2.70381E+8 147789 2.70381E+8 147789 186.149 0.101749 183.248 0.100953 14.1888 0.0330635
11862 2.70288E+8 147697 2.70288E+8 147697 186.655 0.101996 183.773 0.101206 14.1857 0.0330588
11863 2.69962E+8 147561 2.69962E+8 147561 187 0.102214 184.123 0.101425 14.1827 0.0330636
11864 2.69707E+8 147579 2.69707E+8 147579 187.396 0.102541 184.467 0.101735 14.1796 0.0330813
11865 2.68418E+8 148114 2.68418E+8 148114 187.071 0.103229 184.178 0.102427 14.1766 0.0332208
11866 2.64389E+8 150446 2.64389E+8 150446 184.824 0.105179 181.972 0.104363 14.1735 0.0337359
11867 2.56345E+8 156098 2.56345E+8 156098 179.746 0.109469 176.964 0.108617 14.1705 0.0348992
11868 2.45906E+8 163700 2.45906E+8 163700 172.953 0.115151 170.273 0.114256 14.1674 0.0364896
11869 2.38651E+8 168136 2.38651E+8 168136 168.37 0.118625 165.778 0.11771 14.1643 0.0375377
11870 2.41303E+8 166174 2.41303E+8 166174 170.77 0.117589 168.102 0.116668 14.1612 0.0371111
11871 2.50573E+8 159111 2.50573E+8 159111 177.875 0.112931 175.121 0.112053 14.1582 0.0356353
11872 2.59809E+8 152043 2.59809E+8 152043 184.993 0.108249 182.132 0.107407 14.1551 0.0342105
11873 2.64896E+8 147946 2.64896E+8 147946 189.19 0.105659 186.27 0.104839 14.1521 0.0334213
11874 2.66564E+8 146383 2.66564E+8 146383 190.962 0.104865 188.022 0.104055 14.1491 0.0331404
11875 2.66895E+8 145941 2.66895E+8 145941 191.784 0.104869 188.818 0.104055 14.146 0.0330699
11876 2.66513E+8 145699 2.66513E+8 145699 192.096 0.105016 189.134 0.104203 14.1429 0.0330662
11877 2.66147E+8 145520 2.66147E+8 145520 192.419 0.105208 189.45 0.104393 14.1399 0.0330686
11878 2.66096E+8 145440 2.66096E+8 145440 192.972 0.105472 190.006 0.104659 14.1368 0.0330626
11879 2.65792E+8 145284 2.65792E+8 145284 193.341 0.105682 190.369 0.104866 14.1338 0.0330638
11880 2.65546E+8 145146 2.65546E+8 145146 193.753 0.105904 190.789 0.105092 14.1307 0.0330634
11881 2.65461E+8 145056 2.65461E+8 145056 194.284 0.106162 191.271 0.105336 14.1277 0.0330584
11882 2.65273E+8 144935 2.65273E+8 144935 194.741 0.106399 191.738 0.105576 14.1246 0.0330564
11883 2.64996E+8 144790 2.64996E+8 144790 195.133 0.106618 192.14 0.105798 14.1215 0.0330572
11884 2.64571E+8 144601 2.64571E+8 144601 195.417 0.106805 192.43 0.105986 14.1185 0.0330621
11885 2.6442E+8 144496 2.6442E+8 144496 195.903 0.107054 192.905 0.106232 14.1154 0.0330595
11886 2.6417E+8 144361 2.6417E+8 144361 196.317 0.107281 193.313 0.106457 14.1124 0.0330596
11887 2.63975E+8 144239 2.63975E+8 144239 196.773 0.107519 193.76 0.106693 14.1093 0.0330579
11888 2.63714E+8 144095 2.63714E+8 144095 197.18 0.10774 194.172 0.106915 14.1063 0.0330577
11889 2.63477E+8 143968 2.63477E+8 143968 197.605 0.107974 194.566 0.107141 14.1032 0.033058
11890 2.63041E+8 143779 2.63041E+8 143779 197.883 0.108164 194.853 0.107333 14.1001 0.0330637
11891 2.62917E+8 143678 2.62917E+8 143678 198.395 0.108418 195.336 0.107579 14.0971 0.0330598
11892 2.62632E+8 143532 2.62632E+8 143532 198.786 0.108639 195.743 0.107805 14.094 0.033061
11893 2.62592E+8 143454 2.62592E+8 143454 199.365 0.108913 196.325 0.10808 14.091 0.0330545
11894 2.62261E+8 143297 2.62261E+8 143297 199.723 0.109127 196.662 0.108287 14.0879 0.0330573
11895 2.61902E+8 143128 2.61902E+8 143128 200.06 0.109332 196.982 0.108488 14.0849 0.0330604
11896 2.6171E+8 143004 2.6171E+8 143004 200.525 0.109572 197.483 0.108738 14.0818 0.0330582
11897 2.6133E+8 142839 2.6133E+8 142839 200.847 0.10978 197.818 0.108949 14.0787 0.0330632
11898 2.61256E+8 142747 2.61256E+8 142747 201.406 0.110045 198.344 0.109206 14.0757 0.0330571
11899 2.6072E+8 142534 2.6072E+8 142534 201.608 0.110218 198.543 0.109377 14.0726 0.0330664
11900 2.60731E+8 142474 2.60731E+8 142474 202.233 0.110509 199.159 0.109666 14.0696 0.0330588
11901 2.60474E+8 142339 2.60474E+8 142339 202.653 0.110742 199.566 0.109895 14.0665 0.0330593
11902 2.60132E+8 142170 2.60132E+8 142170 203.006 0.110949 199.923 0.110103 14.0635 0.0330615
11903 2.60022E+8 142079 2.60022E+8 142079 203.541 0.111218 200.479 0.110378 14.0604 0.0330579
11904 2.59552E+8 141882 2.59552E+8 141882 203.795 0.111403 200.718 0.110559 14.0574 0.0330648
11905 2.59381E+8 141766 2.59381E+8 141766 204.284 0.111653 201.175 0.1108 14.0543 0.0330622
11906 2.5922E+8 141654 2.5922E+8 141654 204.05 0.111513 200.944 0.110662 14.0548 0.03306
11907 2.58886E+8 141496 2.58886E+8 141496 184.708 0.10163 181.911 0.100857 14.1531 0.0331176
11908 2.58913E+8 141440 2.58913E+8 141440 144.643 0.0801759 142.446 0.0795652 14.3977 0.0331751
11909 2.58352E+8 141213 2.58352E+8 141213 107.128 0.0594142 105.513 0.0589647 14.6958 0.0331844
11910 2.5806E+8 141070 2.5806E+8 141070 79.4157 0.0440506 78.2093 0.0437145 14.994 0.0331865
11911 2.57925E+8 140961 2.57925E+8 140961 58.9195 0.032673 58.0253 0.032424 15.292 0.0331822
11912 2.57779E+8 140855 2.57779E+8 140855 43.7041 0.0242312 43.0476 0.0240487 15.5902 0.0331792
11913 2.57648E+8 140755 2.57648E+8 140755 32.4264 0.0179748 31.9353 0.0178381 15.8881 0.0331758
11914 2.5721E+8 140566 2.5721E+8 140566 24.0272 0.0133239 23.6659 0.0132234 16.1862 0.0331819
11915 2.56861E+8 140403 2.56861E+8 140403 17.8095 0.00987791 17.5384 0.00980243 16.4843 0.0331852
11916 2.56712E+8 140295 2.56712E+8 140295 13.2097 0.00732521 13.0098 0.00726956 16.7825 0.0331819
11917 2.56498E+8 140172 2.56498E+8 140172 9.79582 0.00543183 9.64788 0.00539067 17.0807 0.0331811
11918 2.5628E+8 140044 2.5628E+8 140044 7.26576 0.00402866 7.15742 0.00399851 17.3786 0.0331801
11919 2.55956E+8 139887 2.55956E+8 139887 5.38594 0.00298678 5.30458 0.00296415 17.6767 0.0331826
11920 2.55705E+8 139751 2.55705E+8 139751 3.9927 0.00221416 3.93286 0.00219751 17.9751 0.0331826
11921 2.55263E+8 139564 2.55263E+8 139564 2.9594 0.00164178 2.91461 0.00162932 18.2728 0.0331891
11922 2.55319E+8 139511 2.55319E+8 139511 2.19675 0.00121796 2.16353 0.00120873 18.571 0.0331792
11923 2.55058E+8 139383 2.55058E+8 139383 1.62885 0.000903185 1.60445 0.000896404 18.8691 0.0331808
11924 2.54293E+8 140338 2.54293E+8 140338 1.20569 0.000672731 1.18762 0.000667668 19.1669 0.0333142
11925 2.48876E+8 156936 2.48876E+8 156936 0.878873 0.000540695 0.865663 0.000536614 19.4616 0.0352958
11926 2.42481E+8 174775 2.42481E+8 174775 0.633754 0.000458636 0.624236 0.00045518 19.7625 0.0380061
11927 2.46581E+8 161845 2.46581E+8 161845 0.475734 0.000331372 0.468593 0.000328869 20.0661 0.0367819
11928 2.52941E+8 140982 2.52941E+8 140982 0.363651 0.000207465 0.358202 0.000205904 20.3602 0.0335839
11929 2.53553E+8 138577 2.53553E+8 138577 0.270695 0.000150131 0.266649 0.000149006 20.6578 0.0331836
11930 2.53475E+8 138473 2.53475E+8 138473 0.200905 0.000111367 0.197915 0.000110535 20.9557 0.0331756
11931 2.53076E+8 138299 2.53076E+8 138299 0.148844 0.0000825323 0.146611 0.0000819107 21.2541 0.0331807
11932 2.52676E+8 138124 2.52676E+8 138124 0.110324 0.0000611926 0.108683 0.0000607364 21.552 0.033186
11933 2.52648E+8 138048 2.52648E+8 138048 0.0818919 0.000045403 0.0806615 0.0000450607 21.8499 0.0331787
11934 2.52573E+8 137963 2.52573E+8 137963 0.0607563 0.0000336738 0.0598489 0.0000334218 22.1481 0.0331734
11935 2.52213E+8 137798 2.52213E+8 137798 0.0450298 0.0000249635 0.0443577 0.0000247767 22.4462 0.0331773
11936 2.51679E+8 137585 2.51679E+8 137585 0.033354 0.0000185015 0.0328596 0.0000183638 22.7442 0.0331869
11937 2.5147E+8 137460 2.5147E+8 137460 0.0247343 0.0000137193 0.024365 0.0000136164 23.0424 0.0331857
11938 2.51389E+8 137375 2.51389E+8 137375 0.0183539 0.0000101769 0.0180802 0.0000101007 23.3404 0.0331805
11939 2.51181E+8 137247 2.51181E+8 137247 0.0136103 0.00000754592 0.0134066 0.00000748925 23.6386 0.0331788
11940 2.50818E+8 137085 2.50818E+8 137085 0.0100863 0.00000559364 0.00993551 0.00000555164 23.9368 0.0331833
11941 2.50807E+8 137016 2.50807E+8 137016 0.00748654 0.00000414994 0.00737571 0.00000411909 24.2348 0.0331756
11942 2.50373E+8 136831 2.50373E+8 136831 0.00554779 0.00000307644 0.00546524 0.00000305346 24.5328 0.0331819
11943 2.50159E+8 136704 2.50159E+8 136704 0.00411384 0.00000228106 0.00405317 0.00000226418 24.831 0.0331806
11944 2.49754E+8 136528 2.49754E+8 136528 0.00304859 0.00000169097 0.00300298 0.00000167828 25.1291 0.0331862
11945 2.49553E+8 136406 2.49553E+8 136406 0.00226101 0.00000125403 0.00222725 0.00000124463 25.4271 0.0331849
11946 2.49162E+8 136234 2.49162E+8 136234 0.00167555 9.296E-7 0.00165054 9.2264E-7 25.7252 0.0331899
11947 2.4931E+8 136213 2.4931E+8 136213 0.00124433 6.89843E-7 0.00122578 6.84684E-7 26.0234 0.0331776
11948 2.48927E+8 136042 2.48927E+8 136042 0.000922327 5.11465E-7 0.000908706 5.07672E-7 26.3213 0.0331821
11949 2.48746E+8 135921 2.48746E+8 135921 0.00068407 3.79274E-7 0.000673935 3.76455E-7 26.6194 0.0331792
11950 2.48631E+8 135821 2.48631E+8 135821 0.000507464 2.8129E-7 0.000499913 2.79191E-7 26.9176 0.033175
11951 2.48139E+8 135623 2.48139E+8 135623 0.000375909 2.08473E-7 0.000370326 2.06919E-7 27.2157 0.0331835
11952 2.48E+8 135519 2.48E+8 135519 0.000278856 1.54619E-7 0.000274756 1.53479E-7 27.5138 0.0331802
11953 2.47791E+8 135396 2.47791E+8 135396 0.000206785 1.1465E-7 0.000203739 1.13802E-7 27.8119 0.0331791
11954 2.47375E+8 135218 2.47375E+8 135218 0.00015325 8.49984E-8 0.000150997 8.43706E-8 28.1099 0.0331851
11955 2.47217E+8 135103 2.47217E+8 135103 0.000113673 6.30341E-8 0.000111992 6.2566E-8 28.408 0.0331816
11956 2.47116E+8 135016 2.47116E+8 135016 0.0000843308 4.67525E-8 0.0000830854 4.64061E-8 28.7061 0.0331777
11957 2.46745E+8 134848 2.46745E+8 134848 0.0000624993 3.46583E-8 0.0000615837 3.44036E-8 29.0042 0.033182
11958 2.46515E+8 134720 2.46515E+8 134720 0.0000463447 2.56991E-8 0.0000456658 2.55102E-8 29.3023 0.0331816
11959 2.46127E+8 134548 2.46127E+8 134548 0.000034348 1.90522E-8 0.0000338414 1.89111E-8 29.6003 0.0331865
11960 2.45954E+8 134437 2.45954E+8 134437 0.000025475 1.41288E-8 0.0000250969 1.40237E-8 29.8985 0.0331845
11961 2.45644E+8 134280 2.45644E+8 134280 0.0000188837 1.04744E-8 0.0000186049 1.03967E-8 30.1966 0.0331862
11962 2.45693E+8 134230 2.45693E+8 134230 0.0000140201 7.77204E-9 0.000013814 7.7147E-9 30.4946 0.0331765
11963 2.45418E+8 134091 2.45418E+8 134091 0.0000103951 5.76298E-9 0.0000102434 5.72078E-9 30.7926 0.0331778
11964 2.4525E+8 133982 2.4525E+8 133982 0.00000770974 4.27383E-9 0.00000759591 4.24216E-9 31.0908 0.0331761
11965 2.44568E+8 133728 2.44568E+8 133728 0.00000570591 3.16571E-9 0.00000562221 3.14241E-9 31.389 0.0331904
11966 2.44573E+8 133666 2.44573E+8 133666 0.00000423559 2.34888E-9 0.00000417337 2.33158E-9 31.687 0.0331826
11967 2.44508E+8 133580 2.44508E+8 133580 0.00000314223 1.74191E-9 0.00000309636 1.72916E-9 31.9853 0.0331765
11968 2.44196E+8 133430 2.44196E+8 133430 0.00000232981 1.29173E-9 0.00000229566 1.28223E-9 32.2832 0.0331789
11969 2.44076E+8 133326 2.44076E+8 133326 0.00000172836 9.57986E-10 0.00000170307 9.50967E-10 32.5813 0.0331741
11970 2.43775E+8 133185 2.43775E+8 133185 0.00000128136 7.10343E-10 0.00000126256 7.05109E-10 32.8793 0.033177
11971 2.43553E+8 133060 2.43553E+8 133060 9.50195E-7 5.26756E-10 9.36277E-7 5.22887E-10 33.1774 0.0331768
11972 2.42939E+8 132827 2.42939E+8 132827 7.03512E-7 3.90293E-10 6.93211E-7 3.8742E-10 33.4755 0.0331893
11973 2.43052E+8 132790 2.43052E+8 132790 5.22419E-7 2.89612E-10 5.14747E-7 2.87478E-10 33.7736 0.033177
11974 2.42585E+8 132603 2.42585E+8 132603 3.86976E-7 2.14638E-10 3.81358E-7 2.13076E-10 34.0718 0.0331855
11975 2.42363E+8 132471 2.42363E+8 132471 2.8695E-7 1.59145E-10 2.8277E-7 1.5798E-10 34.3699 0.0331842
11976 2.42265E+8 132376 2.42265E+8 132376 2.12927E-7 1.18053E-10 2.09816E-7 1.17187E-10 34.6679 0.0331789
11977 2.4189E+8 132213 2.4189E+8 132213 1.57771E-7 8.75011E-11 1.55486E-7 8.68658E-11 34.9661 0.0331842
11978 2.41606E+8 132064 2.41606E+8 132064 1.20799E-7 6.66014E-11 1.19039E-7 6.61144E-11 35.232 0.0331354
11979 2.41541E+8 131991 2.41541E+8 131991 1.06981E-7 5.84685E-11 1.05429E-7 5.80429E-11 35.3532 0.0330603
11980 2.40883E+8 131739 2.40883E+8 131739 1.0683E-7 5.84258E-11 1.05275E-7 5.79992E-11 35.3519 0.0330727
11981 2.40889E+8 131680 2.40889E+8 131680 1.07676E-7 5.88607E-11 1.06119E-7 5.84337E-11 35.344 0.0330649
11982 2.40538E+8 131509 2.40538E+8 131509 1.08368E-7 5.92489E-11 1.06793E-7 5.88168E-11 35.3361 0.0330676
11983 2.4069E+8 131496 2.4069E+8 131496 1.09294E-7 5.97111E-11 1.07709E-7 5.92769E-11 35.3282 0.0330555
11984 2.40323E+8 131324 2.40323E+8 131324 1.0999E-7 6.01041E-11 1.08392E-7 5.96659E-11 35.3204 0.033059
11985 2.40063E+8 131193 2.40063E+8 131193 1.10739E-7 6.05185E-11 1.09121E-7 6.00752E-11 35.3125 0.0330604
11986 2.39759E+8 131047 2.39759E+8 131047 1.11473E-7 6.0929E-11 1.0986E-7 6.04866E-11 35.3046 0.0330629
11987 2.3954E+8 130921 2.3954E+8 130921 1.12251E-7 6.13514E-11 1.10612E-7 6.09021E-11 35.2968 0.0330622
11988 2.39112E+8 130741 2.39112E+8 130741 1.12935E-7 6.17507E-11 1.11291E-7 6.12996E-11 35.2889 0.033069
11989 2.38989E+8 130642 2.38989E+8 130642 1.13769E-7 6.21915E-11 1.12111E-7 6.17367E-11 35.281 0.033065
11990 2.38909E+8 130550 2.38909E+8 130550 1.14629E-7 6.26389E-11 1.12971E-7 6.21841E-11 35.2732 0.0330589
11991 2.38573E+8 130400 2.38573E+8 130400 1.15373E-7 6.30614E-11 1.13702E-7 6.26031E-11 35.2653 0.0330632
11992 2.38363E+8 130276 2.38363E+8 130276 1.16181E-7 6.34987E-11 1.14508E-7 6.30399E-11 35.2574 0.0330619
11993 2.38263E+8 130200 2.38263E+8 130200 1.1705E-7 6.39634E-11 1.15348E-7 6.34965E-11 35.2495 0.0330593
11994 2.37687E+8 130047 2.37687E+8 130047 1.1769E-7 6.43933E-11 1.15997E-7 6.39282E-11 35.2417 0.0330799
11995 2.37076E+8 130118 2.37076E+8 130118 1.18314E-7 6.49378E-11 1.16607E-7 6.44666E-11 35.2338 0.0331317
11996 2.34759E+8 130418 2.34759E+8 130418 1.1808E-7 6.56027E-11 1.16389E-7 6.5129E-11 35.226 0.0333334
11997 2.28869E+8 131325 2.28869E+8 131325 1.16021E-7 6.65828E-11 1.14351E-7 6.60977E-11 35.2182 0.0338775
11998 2.17157E+8 133195 2.17157E+8 133195 1.10944E-7 6.80667E-11 1.09367E-7 6.75764E-11 35.2104 0.0350269
11999 1.9823E+8 136442 1.9823E+8 136442 1.02064E-7 7.02824E-11 1.0059E-7 6.97697E-11 35.2026 0.0371067
12000 1.7362E+8 144512 1.7362E+8 144512 9.009E-8 7.50472E-11 8.87919E-8 7.45051E-11 35.1948 0.040809
12001 1.4858E+8 157771 1.4858E+8 157771 7.77068E-8 8.25836E-11 7.65733E-8 8.19833E-11 35.187 0.0460936
12002 1.39095E+8 163967 1.39095E+8 163967 7.33532E-8 8.64578E-11 7.22946E-8 8.58378E-11 35.1786 0.0485538
12003 1.53206E+8 155044 1.53206E+8 155044 8.14627E-8 8.23613E-11 8.02696E-8 8.17604E-11 35.1704 0.0449781
12004 1.78139E+8 141871 1.78139E+8 141871 9.5465E-8 7.59707E-11 9.41003E-8 7.54242E-11 35.1626 0.0399024
12005 2.01265E+8 134893 2.01265E+8 134893 1.08698E-7 7.28208E-11 1.07132E-7 7.229E-11 35.1548 0.0366083
12006 2.17856E+8 131637 2.17856E+8 131637 1.18575E-7 7.16288E-11 1.16897E-7 7.1115E-11 35.1471 0.0347609
12007 2.27923E+8 129764 2.27923E+8 129764 1.25023E-7 7.1171E-11 1.23246E-7 7.06597E-11 35.1393 0.0337431
12008 2.32244E+8 128690 2.32244E+8 128690 1.28393E-7 7.11416E-11 1.26559E-7 7.06294E-11 35.1315 0.0332897
12009 2.33776E+8 128228 2.33776E+8 128228 1.30258E-7 7.1447E-11 1.28399E-7 7.09346E-11 35.1236 0.0331211
12010 2.34003E+8 127988 2.34003E+8 127988 1.31414E-7 7.18772E-11 1.29542E-7 7.13635E-11 35.1158 0.0330742
12011 2.33807E+8 127813 2.33807E+8 127813 1.32342E-7 7.23464E-11 1.30449E-7 7.18273E-11 35.1079 0.0330655
12012 2.33617E+8 127689 2.33617E+8 127689 1.33278E-7 7.28467E-11 1.31359E-7 7.23202E-11 35.1 0.0330628
12013 2.33565E+8 127607 2.33565E+8 127607 1.34302E-7 7.33759E-11 1.32377E-7 7.28483E-11 35.0921 0.033056
12014 2.33176E+8 127436 2.33176E+8 127436 1.35137E-7 7.38565E-11 1.33195E-7 7.33241E-11 35.0843 0.0330614
12015 2.33125E+8 127361 2.33125E+8 127361 1.36175E-7 7.43958E-11 1.34227E-7 7.38618E-11 35.0764 0.0330552
12016 2.32732E+8 127190 2.32732E+8 127190 1.3702E-7 7.4883E-11 1.35073E-7 7.43491E-11 35.0685 0.0330608
12017 2.32521E+8 127066 2.32521E+8 127066 1.37977E-7 7.54008E-11 1.35986E-7 7.48549E-11 35.0607 0.0330597
12018 2.32422E+8 126971 2.32422E+8 126971 1.39008E-7 7.59406E-11 1.37039E-7 7.54008E-11 35.0528 0.0330545
12019 2.32314E+8 126878 2.32314E+8 126878 1.40042E-7 7.64844E-11 1.38056E-7 7.59405E-11 35.0449 0.03305
12020 2.31908E+8 126702 2.31908E+8 126702 1.40901E-7 7.6981E-11 1.38896E-7 7.64314E-11 35.0371 0.0330559
12021 2.31563E+8 126546 2.31563E+8 126546 1.41803E-7 7.74939E-11 1.39784E-7 7.69404E-11 35.0292 0.0330602
12022 2.31188E+8 126378 2.31188E+8 126378 1.42692E-7 7.80027E-11 1.40661E-7 7.74459E-11 35.0213 0.0330651
12023 2.31194E+8 126319 2.31194E+8 126319 1.43823E-7 7.85823E-11 1.41788E-7 7.80242E-11 35.0134 0.0330569
12024 2.30958E+8 126193 2.30958E+8 126193 1.44811E-7 7.91239E-11 1.42749E-7 7.85583E-11 35.0056 0.0330573
12025 2.30644E+8 126038 2.30644E+8 126038 1.45757E-7 7.96512E-11 1.4369E-7 7.90844E-11 34.9977 0.0330594
12026 2.30501E+8 125936 2.30501E+8 125936 1.46818E-7 8.02159E-11 1.44739E-7 7.96462E-11 34.9898 0.0330563
12027 2.3004E+8 125746 2.3004E+8 125746 1.47681E-7 8.07269E-11 1.45592E-7 8.01541E-11 34.982 0.0330644
12028 2.30023E+8 125681 2.30023E+8 125681 1.48838E-7 8.13229E-11 1.46738E-7 8.07473E-11 34.9741 0.033057
12029 2.29715E+8 125531 2.29715E+8 125531 1.49812E-7 8.18679E-11 1.47689E-7 8.12858E-11 34.9662 0.0330596
12030 2.29378E+8 125373 2.29378E+8 125373 1.50775E-7 8.2411E-11 1.48645E-7 8.18271E-11 34.9584 0.033063
12031 2.29248E+8 125276 2.29248E+8 125276 1.5188E-7 8.29981E-11 1.49729E-7 8.24079E-11 34.9505 0.0330596
12032 2.29086E+8 125166 2.29086E+8 125166 1.52971E-7 8.35796E-11 1.50809E-7 8.29872E-11 34.9426 0.0330567
12033 2.28815E+8 125033 2.28815E+8 125033 1.53998E-7 8.41507E-11 1.51825E-7 8.35548E-11 34.9347 0.0330586
12034 2.28736E+8 124948 2.28736E+8 124948 1.55161E-7 8.47578E-11 1.52963E-7 8.4156E-11 34.9269 0.0330532
12035 2.28496E+8 124815 2.28496E+8 124815 1.56223E-7 8.53369E-11 1.54016E-7 8.47319E-11 34.919 0.033053
12036 2.27905E+8 124588 2.27905E+8 124588 1.57051E-7 8.58553E-11 1.54829E-7 8.52458E-11 34.9111 0.0330657
12037 2.27763E+8 124488 2.27763E+8 124488 1.58192E-7 8.64636E-11 1.55969E-7 8.58539E-11 34.9033 0.0330627
12038 2.27595E+8 124380 2.27595E+8 124380 1.59325E-7 8.70715E-11 1.57086E-7 8.64574E-11 34.8954 0.0330606
12039 2.27383E+8 124260 2.27383E+8 124260 1.60434E-7 8.76741E-11 1.58169E-7 8.70528E-11 34.8875 0.0330599
12040 2.27162E+8 124131 2.27162E+8 124131 1.61544E-7 8.8275E-11 1.5926E-7 8.76488E-11 34.8797 0.0330589
12041 2.26839E+8 123982 2.26839E+8 123982 1.62589E-7 8.88663E-11 1.60301E-7 8.82389E-11 34.8718 0.0330626
12042 2.26738E+8 123887 2.26738E+8 123887 1.638E-7 8.94994E-11 1.6149E-7 8.88663E-11 34.8639 0.0330573
12043 2.26451E+8 123750 2.26451E+8 123750 1.64886E-7 9.01066E-11 1.62566E-7 8.94706E-11 34.8561 0.0330598
12044 2.2623E+8 123626 2.2623E+8 123626 1.66025E-7 9.07274E-11 1.63704E-7 9.0091E-11 34.8482 0.0330595
12045 2.25752E+8 123428 2.25752E+8 123428 1.66983E-7 9.1298E-11 1.64654E-7 9.06591E-11 34.8403 0.033068
12046 2.25894E+8 123409 2.25894E+8 123409 1.6841E-7 9.20051E-11 1.66029E-7 9.13523E-11 34.8324 0.033055
12047 2.25413E+8 123214 2.25413E+8 123214 1.69379E-7 9.25855E-11 1.67003E-7 9.19339E-11 34.8246 0.0330641
12048 2.25327E+8 123126 2.25327E+8 123126 1.70652E-7 9.32506E-11 1.68267E-7 9.25969E-11 34.8167 0.0330586
12049 2.24999E+8 122971 2.24999E+8 122971 1.71749E-7 9.38685E-11 1.69354E-7 9.32119E-11 34.8088 0.0330618
12050 2.24939E+8 122895 2.24939E+8 122895 1.73061E-7 9.4552E-11 1.70635E-7 9.38873E-11 34.801 0.0330559
12051 2.2464E+8 122750 2.2464E+8 122750 1.74197E-7 9.51868E-11 1.71776E-7 9.45232E-11 34.7931 0.0330585
12052 2.24356E+8 122609 2.24356E+8 122609 1.7535E-7 9.58286E-11 1.72892E-7 9.51547E-11 34.7852 0.0330605
12053 2.24203E+8 122504 2.24203E+8 122504 1.76615E-7 9.6503E-11 1.74163E-7 9.58308E-11 34.7774 0.0330575
12054 2.24002E+8 122386 2.24002E+8 122386 1.7785E-7 9.71711E-11 1.75362E-7 9.64893E-11 34.7695 0.0330564
12055 2.2358E+8 122205 2.2358E+8 122205 1.78919E-7 9.77952E-11 1.76415E-7 9.71083E-11 34.7616 0.0330632
12056 2.23484E+8 122116 2.23484E+8 122116 1.80255E-7 9.84956E-11 1.77742E-7 9.78067E-11 34.7537 0.0330582
12057 2.23141E+8 121958 2.23141E+8 121958 1.814E-7 9.91447E-11 1.78851E-7 9.84454E-11 34.7459 0.0330621
12058 2.22906E+8 121834 2.22906E+8 121834 1.8264E-7 9.9827E-11 1.80107E-7 9.91325E-11 34.738 0.0330628
12059 2.2259E+8 121685 2.2259E+8 121685 1.83823E-7 1.00493E-10 1.81278E-7 9.97952E-11 34.7301 0.0330661
12060 2.22438E+8 121579 2.22438E+8 121579 1.85149E-7 1.01199E-10 1.82583E-7 1.00495E-10 34.7223 0.0330629
12061 2.2243E+8 121517 2.2243E+8 121517 1.86604E-7 1.01946E-10 1.84017E-7 1.01237E-10 34.7144 0.0330551
12062 2.22203E+8 121394 2.22203E+8 121394 1.87888E-7 1.02648E-10 1.8531E-7 1.01941E-10 34.7065 0.0330552
12063 2.2188E+8 121242 2.2188E+8 121242 1.89096E-7 1.03329E-10 1.86456E-7 1.02605E-10 34.6987 0.0330585
12064 2.2146E+8 121060 2.2146E+8 121060 1.90229E-7 1.03989E-10 1.87585E-7 1.03264E-10 34.6908 0.033065
12065 2.21331E+8 120965 2.21331E+8 120965 1.91622E-7 1.04729E-10 1.88954E-7 1.03997E-10 34.6829 0.0330616
12066 2.21202E+8 120870 2.21202E+8 120870 1.93023E-7 1.05473E-10 1.90339E-7 1.04737E-10 34.675 0.0330583
12067 2.20962E+8 120740 2.20962E+8 120740 1.94336E-7 1.06192E-10 1.91645E-7 1.05455E-10 34.6672 0.0330585
12068 2.20727E+8 120614 2.20727E+8 120614 1.95664E-7 1.06919E-10 1.92956E-7 1.06177E-10 34.6593 0.0330587
12069 2.20494E+8 120484 2.20494E+8 120484 1.97001E-7 1.07648E-10 1.94285E-7 1.06904E-10 34.6514 0.0330585
12070 2.20224E+8 120348 2.20224E+8 120348 1.98313E-7 1.08375E-10 1.95571E-7 1.07623E-10 34.6436 0.03306
12071 2.19783E+8 120165 2.19783E+8 120165 1.99481E-7 1.09066E-10 1.96721E-7 1.08309E-10 34.6357 0.033068
12072 2.19577E+8 120048 2.19577E+8 120048 2.00868E-7 1.0982E-10 1.98093E-7 1.09059E-10 34.6278 0.0330674
12073 2.19407E+8 119936 2.19407E+8 119936 2.02299E-7 1.10585E-10 1.99497E-7 1.09817E-10 34.62 0.0330648
12074 2.19367E+8 119871 2.19367E+8 119871 2.0386E-7 1.11398E-10 2.01062E-7 1.10631E-10 34.6121 0.0330588
12075 2.19173E+8 119751 2.19173E+8 119751 2.05289E-7 1.12166E-10 2.02473E-7 1.11394E-10 34.6042 0.0330569
12076 2.18568E+8 119523 2.18568E+8 119523 2.06341E-7 1.12838E-10 2.03491E-7 1.12056E-10 34.5963 0.0330711
12077 2.18561E+8 119460 2.18561E+8 119460 2.07963E-7 1.13669E-10 2.05101E-7 1.12884E-10 34.5885 0.0330629
12078 2.18428E+8 119362 2.18428E+8 119362 2.09479E-7 1.14473E-10 2.06584E-7 1.13679E-10 34.5806 0.0330594
12079 2.18144E+8 119223 2.18144E+8 119223 2.10861E-7 1.15244E-10 2.07965E-7 1.1445E-10 34.5727 0.0330617
12080 2.1799E+8 119116 2.1799E+8 119116 2.12376E-7 1.1605E-10 2.09456E-7 1.15249E-10 34.5649 0.0330585
12081 2.17682E+8 118970 2.17682E+8 118970 2.13751E-7 1.16823E-10 2.10812E-7 1.16017E-10 34.557 0.0330616
12082 2.17555E+8 118871 2.17555E+8 118871 2.15315E-7 1.17648E-10 2.12373E-7 1.16842E-10 34.5491 0.0330575
12083 2.1751E+8 118799 2.1751E+8 118799 2.1697E-7 1.18506E-10 2.13972E-7 1.17684E-10 34.5413 0.0330509
12084 2.16912E+8 118573 2.16912E+8 118573 2.18083E-7 1.19214E-10 2.15094E-7 1.18394E-10 34.5334 0.0330649
12085 2.16793E+8 118477 2.16793E+8 118477 2.19686E-7 1.20059E-10 2.1668E-7 1.19235E-10 34.5255 0.0330606
12086 2.16501E+8 118335 2.16501E+8 118335 2.21124E-7 1.20863E-10 2.18099E-7 1.20033E-10 34.5176 0.033063
12087 2.16203E+8 118196 2.16203E+8 118196 2.22565E-7 1.21674E-10 2.19527E-7 1.20841E-10 34.5098 0.0330663
12088 2.16118E+8 118111 2.16118E+8 118111 2.24234E-7 1.22548E-10 2.2117E-7 1.21707E-10 34.5019 0.033061
12089 2.15904E+8 117988 2.15904E+8 117988 2.25783E-7 1.23387E-10 2.22697E-7 1.22541E-10 34.494 0.0330601
12090 2.1558E+8 117835 2.1558E+8 117835 2.27224E-7 1.24201E-10 2.24136E-7 1.23354E-10 34.4862 0.0330635
12091 2.15371E+8 117718 2.15371E+8 117718 2.28798E-7 1.25058E-10 2.25686E-7 1.24205E-10 34.4783 0.0330631
12092 2.15089E+8 117578 2.15089E+8 117578 2.30303E-7 1.25896E-10 2.27153E-7 1.25032E-10 34.4704 0.0330651
12093 2.15029E+8 117503 2.15029E+8 117503 2.32058E-7 1.2681E-10 2.28887E-7 1.25941E-10 34.4626 0.0330592
12094 2.14842E+8 117387 2.14842E+8 117387 2.33687E-7 1.27685E-10 2.30486E-7 1.26808E-10 34.4547 0.0330572
12095 2.14577E+8 117257 2.14577E+8 117257 2.35246E-7 1.28552E-10 2.32041E-7 1.27674E-10 34.4468 0.0330592
12096 2.14293E+8 117116 2.14293E+8 117116 2.36788E-7 1.29411E-10 2.33566E-7 1.28528E-10 34.439 0.0330613
12097 2.14004E+8 116976 2.14004E+8 116976 2.38338E-7 1.30278E-10 2.35097E-7 1.2939E-10 34.4311 0.0330639
12098 2.13887E+8 116883 2.13887E+8 116883 2.4009E-7 1.31203E-10 2.36836E-7 1.30311E-10 34.4232 0.0330598
12099 2.13515E+8 116718 2.13515E+8 116718 2.41566E-7 1.32053E-10 2.38271E-7 1.31149E-10 34.4153 0.0330651
12100 2.13278E+8 116594 2.13278E+8 116594 2.43204E-7 1.32955E-10 2.3986E-7 1.32037E-10 34.4075 0.0330659
12101 2.13072E+8 116477 2.13072E+8 116477 2.44887E-7 1.33871E-10 2.41551E-7 1.32956E-10 34.3996 0.0330654
12102 2.12913E+8 116374 2.12913E+8 116374 2.46639E-7 1.34809E-10 2.43269E-7 1.33885E-10 34.3917 0.033063
12103 2.12776E+8 116410 2.12776E+8 116410 2.48427E-7 1.35917E-10 2.45056E-7 1.34992E-10 34.3839 0.0330789
12104 2.11847E+8 117774 2.11847E+8 117774 2.49295E-7 1.38615E-10 2.45943E-7 1.37677E-10 34.376 0.0333462
12105 2.08415E+8 127742 2.08415E+8 127742 2.4718E-7 1.51618E-10 2.43849E-7 1.50584E-10 34.3682 0.0350188
12106 1.98157E+8 159894 1.98157E+8 159894 2.36843E-7 1.91416E-10 2.33609E-7 1.90096E-10 34.3604 0.0401884
12107 1.81951E+8 205456 1.81951E+8 205456 2.19183E-7 2.47832E-10 2.16235E-7 2.46157E-10 34.3526 0.0475384
12108 1.73235E+8 228982 1.73235E+8 228982 2.10375E-7 2.78091E-10 2.07561E-7 2.76241E-10 34.3445 0.0514168
12109 1.80618E+8 209927 1.80618E+8 209927 2.21126E-7 2.56674E-10 2.18147E-7 2.54951E-10 34.3364 0.0481979
12110 1.95616E+8 165171 1.95616E+8 165171 2.41378E-7 2.03459E-10 2.38159E-7 2.02101E-10 34.3286 0.0410764
12111 2.06267E+8 130253 2.06267E+8 130253 2.565E-7 1.61821E-10 2.53036E-7 1.60715E-10 34.3208 0.0355296
12112 2.09781E+8 117554 2.09781E+8 117554 2.62915E-7 1.47297E-10 2.59392E-7 1.46305E-10 34.313 0.0334755
12113 2.10234E+8 115173 2.10234E+8 115173 2.65559E-7 1.4548E-10 2.61962E-7 1.44491E-10 34.3052 0.0331007
12114 2.10357E+8 114904 2.10357E+8 114904 2.67812E-7 1.46289E-10 2.64217E-7 1.45304E-10 34.2973 0.0330525
12115 2.10063E+8 114743 2.10063E+8 114743 2.69551E-7 1.47238E-10 2.65935E-7 1.46247E-10 34.2894 0.0330524
12116 2.09717E+8 114587 2.09717E+8 114587 2.71233E-7 1.482E-10 2.67575E-7 1.47197E-10 34.2816 0.0330572
12117 2.09481E+8 114455 2.09481E+8 114455 2.73069E-7 1.49199E-10 2.69388E-7 1.4819E-10 34.2737 0.0330568
12118 2.09108E+8 114286 2.09108E+8 114286 2.74736E-7 1.50156E-10 2.71056E-7 1.49147E-10 34.2658 0.0330618
12119 2.08949E+8 114182 2.08949E+8 114182 2.76696E-7 1.51204E-10 2.72995E-7 1.5019E-10 34.2579 0.0330594
12120 2.08561E+8 114005 2.08561E+8 114005 2.78365E-7 1.52163E-10 2.74604E-7 1.51132E-10 34.2501 0.0330645
12121 2.08476E+8 113921 2.08476E+8 113921 2.8045E-7 1.53251E-10 2.76676E-7 1.52217E-10 34.2422 0.0330589
12122 2.08123E+8 113758 2.08123E+8 113758 2.82187E-7 1.54242E-10 2.78408E-7 1.53206E-10 34.2343 0.0330633
12123 2.07887E+8 113631 2.07887E+8 113631 2.84094E-7 1.55287E-10 2.80279E-7 1.54241E-10 34.2265 0.0330636
12124 2.07749E+8 113529 2.07749E+8 113529 2.86147E-7 1.56374E-10 2.82317E-7 1.55324E-10 34.2186 0.0330599
12125 2.07373E+8 113360 2.07373E+8 113360 2.87886E-7 1.57374E-10 2.84022E-7 1.56315E-10 34.2107 0.0330652
12126 2.07144E+8 113236 2.07144E+8 113236 2.89841E-7 1.58444E-10 2.86E-7 1.57391E-10 34.2029 0.0330653
12127 2.07073E+8 113149 2.07073E+8 113149 2.92031E-7 1.59573E-10 2.88121E-7 1.58501E-10 34.195 0.0330582
12128 2.06838E+8 113023 2.06838E+8 113023 2.94003E-7 1.60654E-10 2.90056E-7 1.59572E-10 34.1871 0.0330586
12129 2.06605E+8 112895 2.06605E+8 112895 2.95993E-7 1.6174E-10 2.92053E-7 1.60661E-10 34.1793 0.0330584
12130 2.0635E+8 112761 2.0635E+8 112761 2.97964E-7 1.62825E-10 2.93969E-7 1.6173E-10 34.1714 0.0330593
12131 2.06088E+8 112625 2.06088E+8 112625 2.99935E-7 1.63913E-10 2.95941E-7 1.62818E-10 34.1635 0.0330604
12132 2.05627E+8 112434 2.05627E+8 112434 3.01629E-7 1.64927E-10 2.976E-7 1.63822E-10 34.1556 0.0330692
12133 2.05652E+8 112375 2.05652E+8 112375 3.04051E-7 1.66144E-10 2.99972E-7 1.65026E-10 34.1478 0.0330586
12134 2.05315E+8 112219 2.05315E+8 112219 3.05951E-7 1.67225E-10 3.01867E-7 1.66106E-10 34.1399 0.0330628
12135 2.05035E+8 112078 2.05035E+8 112078 3.07947E-7 1.68334E-10 3.03819E-7 1.67202E-10 34.132 0.0330645
12136 2.04773E+8 111941 2.04773E+8 111941 3.09985E-7 1.69458E-10 3.05875E-7 1.68331E-10 34.1242 0.0330655
12137 2.04609E+8 111835 2.04609E+8 111835 3.12183E-7 1.70635E-10 3.08062E-7 1.69504E-10 34.1163 0.0330631
12138 2.04454E+8 111728 2.04454E+8 111728 3.1441E-7 1.71817E-10 3.10203E-7 1.70664E-10 34.1084 0.0330598
12139 2.04182E+8 111585 2.04182E+8 111585 3.16473E-7 1.72953E-10 3.12287E-7 1.71806E-10 34.1006 0.0330606
12140 2.03878E+8 111443 2.03878E+8 111443 3.18499E-7 1.74098E-10 3.14259E-7 1.72935E-10 34.0927 0.0330642
12141 2.03849E+8 111372 2.03849E+8 111372 3.20969E-7 1.75361E-10 3.1669E-7 1.74188E-10 34.0848 0.0330559
12142 2.03533E+8 111220 2.03533E+8 111220 3.23004E-7 1.76505E-10 3.18702E-7 1.75326E-10 34.0769 0.0330589
12143 2.03295E+8 111094 2.03295E+8 111094 3.25178E-7 1.77701E-10 3.20839E-7 1.76512E-10 34.0691 0.0330597
12144 2.02931E+8 110928 2.02931E+8 110928 3.27158E-7 1.78835E-10 3.22835E-7 1.77651E-10 34.0612 0.0330645
12145 2.02725E+8 110806 2.02725E+8 110806 3.29409E-7 1.80051E-10 3.25045E-7 1.78854E-10 34.0533 0.0330631
12146 2.0241E+8 110653 2.0241E+8 110653 3.31494E-7 1.81222E-10 3.27089E-7 1.80014E-10 34.0455 0.033066
12147 2.02183E+8 110532 2.02183E+8 110532 3.33738E-7 1.82454E-10 3.29351E-7 1.81251E-10 34.0376 0.0330665
12148 2.02102E+8 110444 2.02102E+8 110444 3.36241E-7 1.8375E-10 3.31786E-7 1.82529E-10 34.0297 0.0330599
12149 2.01976E+8 110348 2.01976E+8 110348 3.38686E-7 1.8504E-10 3.34183E-7 1.83806E-10 34.0219 0.0330558
12150 2.01743E+8 110238 2.01743E+8 110238 3.40971E-7 1.86317E-10 3.36449E-7 1.85077E-10 34.014 0.0330584
12151 2.00607E+8 111567 2.00607E+8 111567 3.41719E-7 1.90082E-10 3.37209E-7 1.88818E-10 34.0061 0.0333526
12152 1.88578E+8 132727 1.88578E+8 132727 3.23678E-7 2.28225E-10 3.19424E-7 2.26704E-10 33.9985 0.0375357
12153 1.6213E+8 175586 1.6213E+8 175586 2.80438E-7 3.04241E-10 2.76769E-7 3.02261E-10 33.9908 0.0465604
12154 1.58891E+8 179397 1.58891E+8 179397 2.77244E-7 3.12564E-10 2.73548E-7 3.10487E-10 33.9821 0.0475022
12155 1.84415E+8 138466 1.84415E+8 138466 3.24313E-7 2.43005E-10 3.20054E-7 2.41395E-10 33.9743 0.0387316
12156 1.98836E+8 111922 1.98836E+8 111922 3.5232E-7 1.98259E-10 3.47704E-7 1.96948E-10 33.9667 0.0335502
12157 2.00068E+8 109356 2.00068E+8 109356 3.57232E-7 1.95262E-10 3.52555E-7 1.93979E-10 33.9591 0.0330635
12158 1.99654E+8 109142 1.99654E+8 109142 3.59123E-7 1.96318E-10 3.5435E-7 1.95009E-10 33.9517 0.0330653
12159 1.9956E+8 109050 1.9956E+8 109050 3.61526E-7 1.97557E-10 3.56778E-7 1.96255E-10 33.9446 0.0330591
12160 1.99377E+8 108935 1.99377E+8 108935 3.63782E-7 1.98763E-10 3.5898E-7 1.97447E-10 33.9374 0.0330569
12161 1.99213E+8 108830 1.99213E+8 108830 3.6609E-7 1.99995E-10 3.61255E-7 1.9867E-10 33.9303 0.0330545
12162 1.98911E+8 108685 1.98911E+8 108685 3.6815E-7 2.01159E-10 3.63335E-7 1.9984E-10 33.9231 0.0330576
12163 1.98677E+8 108558 1.98677E+8 108558 3.70354E-7 2.02364E-10 3.65465E-7 2.01024E-10 33.916 0.0330577
12164 1.98448E+8 108432 1.98448E+8 108432 3.72577E-7 2.03578E-10 3.67692E-7 2.02239E-10 33.9089 0.0330577
12165 1.98194E+8 108300 1.98194E+8 108300 3.7477E-7 2.04788E-10 3.69897E-7 2.03452E-10 33.9017 0.0330586
12166 1.97851E+8 108142 1.97851E+8 108142 3.76801E-7 2.05954E-10 3.71859E-7 2.04599E-10 33.8946 0.0330631
12167 1.9783E+8 108073 1.9783E+8 108073 3.79461E-7 2.07297E-10 3.74466E-7 2.05928E-10 33.8874 0.0330542
12168 1.97539E+8 107931 1.97539E+8 107931 3.81617E-7 2.08509E-10 3.76605E-7 2.07136E-10 33.8803 0.0330569
12169 1.97095E+8 107743 1.97095E+8 107743 3.8349E-7 2.09639E-10 3.78468E-7 2.08262E-10 33.8732 0.0330654
12170 1.97037E+8 107665 1.97037E+8 107665 3.86124E-7 2.10988E-10 3.81067E-7 2.09602E-10 33.866 0.0330582
12171 1.96837E+8 107551 1.96837E+8 107551 3.88494E-7 2.12273E-10 3.83375E-7 2.1087E-10 33.8589 0.0330574
12172 1.96477E+8 107388 1.96477E+8 107388 3.90565E-7 2.13472E-10 3.85477E-7 2.12077E-10 33.8517 0.0330627
12173 1.96191E+8 107246 1.96191E+8 107246 3.92791E-7 2.14716E-10 3.87669E-7 2.13311E-10 33.8446 0.0330648
12174 1.96032E+8 107144 1.96032E+8 107144 3.95286E-7 2.16049E-10 3.90083E-7 2.14622E-10 33.8374 0.0330625
12175 1.9589E+8 107038 1.9589E+8 107038 3.9783E-7 2.17384E-10 3.92613E-7 2.15954E-10 33.8303 0.0330582
12176 1.95671E+8 106915 1.95671E+8 106915 4.00232E-7 2.18688E-10 3.94966E-7 2.17245E-10 33.8232 0.0330576
12177 1.95545E+8 106815 1.95545E+8 106815 4.02842E-7 2.20051E-10 3.97612E-7 2.18619E-10 33.816 0.0330528
12178 1.95361E+8 106704 1.95361E+8 106704 4.05344E-7 2.21396E-10 4.00072E-7 2.19952E-10 33.8089 0.0330512
12179 1.94965E+8 106539 1.94965E+8 106539 4.07422E-7 2.22637E-10 4.02083E-7 2.21174E-10 33.8017 0.0330591
12180 1.94753E+8 106413 1.94753E+8 106413 4.09897E-7 2.2397E-10 4.04537E-7 2.22501E-10 33.7946 0.0330576
12181 1.9444E+8 106266 1.9444E+8 106266 4.1217E-7 2.25263E-10 4.06814E-7 2.23795E-10 33.7875 0.0330614
12182 1.94226E+8 106144 1.94226E+8 106144 4.14668E-7 2.26617E-10 4.09266E-7 2.25136E-10 33.7803 0.0330606
12183 1.94036E+8 106030 1.94036E+8 106030 4.17232E-7 2.27996E-10 4.11809E-7 2.2651E-10 33.7732 0.033059
12184 1.93649E+8 105860 1.93649E+8 105860 4.19382E-7 2.29259E-10 4.13973E-7 2.27775E-10 33.766 0.0330653
12185 1.93765E+8 105832 1.93765E+8 105832 4.22641E-7 2.30842E-10 4.17197E-7 2.2935E-10 33.7589 0.0330511
12186 1.93358E+8 105660 1.93358E+8 105660 4.24777E-7 2.3212E-10 4.19248E-7 2.30604E-10 33.7518 0.033059
12187 1.93088E+8 105524 1.93088E+8 105524 4.27223E-7 2.3348E-10 4.21665E-7 2.31957E-10 33.7446 0.0330607
12188 1.92916E+8 105413 1.92916E+8 105413 4.29902E-7 2.34908E-10 4.24349E-7 2.33386E-10 33.7375 0.0330581
12189 1.9255E+8 105250 1.9255E+8 105250 4.32162E-7 2.36225E-10 4.26554E-7 2.34687E-10 33.7303 0.0330639
12190 1.92545E+8 105188 1.92545E+8 105188 4.35247E-7 2.37779E-10 4.29652E-7 2.36246E-10 33.7232 0.0330547
12191 1.92353E+8 105073 1.92353E+8 105073 4.37929E-7 2.39221E-10 4.32279E-7 2.37672E-10 33.7161 0.0330531
12192 1.91991E+8 104909 1.91991E+8 104909 4.40238E-7 2.40558E-10 4.34573E-7 2.39006E-10 33.7089 0.0330583
12193 1.91853E+8 104814 1.91853E+8 104814 4.43073E-7 2.42064E-10 4.37428E-7 2.40516E-10 33.7018 0.0330553
12194 1.91494E+8 104650 1.91494E+8 104650 4.45411E-7 2.43415E-10 4.39631E-7 2.41832E-10 33.6946 0.0330604
12195 1.91327E+8 104540 1.91327E+8 104540 4.48213E-7 2.44903E-10 4.42402E-7 2.43311E-10 33.6875 0.0330574
12196 1.91238E+8 104456 1.91238E+8 104456 4.51215E-7 2.46461E-10 4.45358E-7 2.44856E-10 33.6803 0.0330519
12197 1.90772E+8 104265 1.90772E+8 104265 4.53343E-7 2.47771E-10 4.47466E-7 2.4616E-10 33.6732 0.0330618
12198 1.90589E+8 104153 1.90589E+8 104153 4.56154E-7 2.49281E-10 4.50285E-7 2.47673E-10 33.6661 0.03306
12199 1.90272E+8 104007 1.90272E+8 104007 4.58657E-7 2.50714E-10 4.52749E-7 2.49095E-10 33.6589 0.0330644
12200 1.90049E+8 103882 1.90049E+8 103882 4.61404E-7 2.52208E-10 4.55486E-7 2.50586E-10 33.6518 0.0330638
12201 1.89785E+8 103753 1.89785E+8 103753 4.64064E-7 2.53699E-10 4.58123E-7 2.5207E-10 33.6446 0.0330663
12202 1.89697E+8 103660 1.89697E+8 103660 4.67172E-7 2.5529E-10 4.61191E-7 2.5365E-10 33.6375 0.0330592
12203 1.89539E+8 103560 1.89539E+8 103560 4.70127E-7 2.56867E-10 4.64079E-7 2.5521E-10 33.6304 0.0330568
12204 1.89339E+8 103444 1.89339E+8 103444 4.72998E-7 2.58421E-10 4.66923E-7 2.56757E-10 33.6232 0.0330559
12205 1.8898E+8 103284 1.8898E+8 103284 4.75487E-7 2.5987E-10 4.69358E-7 2.58189E-10 33.6161 0.0330615
12206 1.88637E+8 103124 1.88637E+8 103124 4.78025E-7 2.61329E-10 4.71962E-7 2.59666E-10 33.6089 0.0330661
12207 1.88529E+8 103036 1.88529E+8 103036 4.81174E-7 2.62976E-10 4.75019E-7 2.61288E-10 33.6018 0.0330614
12208 1.88354E+8 102927 1.88354E+8 102927 4.84173E-7 2.6458E-10 4.78026E-7 2.62895E-10 33.5947 0.0330592
12209 1.8827E+8 102838 1.8827E+8 102838 4.87427E-7 2.66248E-10 4.81181E-7 2.64536E-10 33.5875 0.0330524
12210 1.87782E+8 102647 1.87782E+8 102647 4.89646E-7 2.67656E-10 4.83411E-7 2.65946E-10 33.5804 0.0330645
12211 1.87533E+8 102510 1.87533E+8 102510 4.92497E-7 2.69214E-10 4.86258E-7 2.67502E-10 33.5732 0.0330644
12212 1.87547E+8 102427 1.87547E+8 102427 4.96066E-7 2.70923E-10 4.89745E-7 2.69191E-10 33.5661 0.0330497
12213 1.86901E+8 102161 1.86901E+8 102161 4.979E-7 2.72157E-10 4.91516E-7 2.70407E-10 33.559 0.0330638
12214 1.86619E+8 101998 1.86619E+8 101998 5.00712E-7 2.73669E-10 4.94319E-7 2.71917E-10 33.5518 0.0330623
12215 1.86434E+8 101856 1.86434E+8 101856 5.038E-7 2.75246E-10 4.97403E-7 2.73492E-10 33.5447 0.0330557
12216 1.86062E+8 101665 1.86062E+8 101665 5.06397E-7 2.76698E-10 4.99927E-7 2.74925E-10 33.5375 0.0330576
12217 1.85808E+8 101508 1.85808E+8 101508 5.09331E-7 2.78251E-10 5.02829E-7 2.7647E-10 33.5304 0.0330547
12218 1.85308E+8 101279 1.85308E+8 101279 5.11601E-7 2.79613E-10 5.05129E-7 2.77839E-10 33.5233 0.0330619
12219 1.85069E+8 101127 1.85069E+8 101127 5.14602E-7 2.81195E-10 5.08047E-7 2.79398E-10 33.5161 0.0330584
12220 1.8467E+8 100926 1.8467E+8 100926 5.17173E-7 2.82646E-10 5.10609E-7 2.80848E-10 33.509 0.0330612
12221 1.84331E+8 100748 1.84331E+8 100748 5.1992E-7 2.8417E-10 5.13356E-7 2.8237E-10 33.5018 0.0330625
12222 1.84065E+8 100586 1.84065E+8 100586 5.22892E-7 2.85747E-10 5.16273E-7 2.83933E-10 33.4947 0.0330597
12223 1.8374E+8 100407 1.8374E+8 100407 5.25709E-7 2.87282E-10 5.19085E-7 2.85467E-10 33.4875 0.0330595
12224 1.83493E+8 100248 1.83493E+8 100248 5.28767E-7 2.88883E-10 5.22102E-7 2.87057E-10 33.4804 0.0330555
12225 1.83117E+8 100057 1.83117E+8 100057 5.31465E-7 2.90398E-10 5.24727E-7 2.88552E-10 33.4733 0.0330578
12226 1.82662E+8 99843.6 1.82662E+8 99843.6 5.33941E-7 2.91856E-10 5.27209E-7 2.9001E-10 33.4661 0.0330637
12227 1.82525E+8 99716.5 1.82525E+8 99716.5 5.37364E-7 2.93573E-10 5.30618E-7 2.91726E-10 33.459 0.0330551
12228 1.82061E+8 99501.2 1.82061E+8 99501.2 5.39842E-7 2.9504E-10 5.33042E-7 2.93175E-10 33.4518 0.0330614
12229 1.81819E+8 99347.5 1.81819E+8 99347.5 5.42986E-7 2.96694E-10 5.36105E-7 2.94809E-10 33.4447 0.0330579
12230 1.81478E+8 99163.9 1.81478E+8 99163.9 5.45852E-7 2.98269E-10 5.38956E-7 2.96379E-10 33.4376 0.0330583
12231 1.81086E+8 98968.6 1.81086E+8 98968.6 5.48577E-7 2.99815E-10 5.41643E-7 2.97914E-10 33.4304 0.0330615
12232 1.80761E+8 98790 1.80761E+8 98790 5.51516E-7 3.01418E-10 5.44537E-7 2.99506E-10 33.4233 0.0330613
12233 1.80426E+8 98612.5 1.80426E+8 98612.5 5.5444E-7 3.03032E-10 5.47466E-7 3.0112E-10 33.4161 0.0330622
12234 1.80105E+8 98436.1 1.80105E+8 98436.1 5.5742E-7 3.04659E-10 5.50397E-7 3.02734E-10 33.409 0.0330621
12235 1.79801E+8 98263.7 1.79801E+8 98263.7 5.60467E-7 3.06304E-10 5.53412E-7 3.0437E-10 33.4019 0.033061
12236 1.79529E+8 98100.4 1.79529E+8 98100.4 5.63628E-7 3.07986E-10 5.5657E-7 3.06052E-10 33.3947 0.0330585
12237 1.78993E+8 97866.7 1.78993E+8 97866.7 5.65974E-7 3.09455E-10 5.58865E-7 3.07506E-10 33.3876 0.0330685
12238 1.78838E+8 97732.1 1.78838E+8 97732.1 5.69534E-7 3.11243E-10 5.62398E-7 3.09288E-10 33.3804 0.0330601
12239 1.7853E+8 97563.6 1.7853E+8 97563.6 5.7263E-7 3.12935E-10 5.65475E-7 3.10973E-10 33.3733 0.0330601
12240 1.7831E+8 97420.1 1.7831E+8 97420.1 5.76022E-7 3.14712E-10 5.68728E-7 3.12713E-10 33.3662 0.0330561
12241 1.78005E+8 97248.4 1.78005E+8 97248.4 5.7916E-7 3.1641E-10 5.71846E-7 3.14405E-10 33.359 0.0330552
12242 1.77552E+8 97041.3 1.77552E+8 97041.3 5.81825E-7 3.17999E-10 5.74512E-7 3.15995E-10 33.3519 0.0330622
12243 1.77316E+8 96890.4 1.77316E+8 96890.4 5.85215E-7 3.1978E-10 5.77923E-7 3.17782E-10 33.3447 0.0330584
12244 1.76829E+8 96674.5 1.76829E+8 96674.5 5.87793E-7 3.21354E-10 5.80421E-7 3.19333E-10 33.3376 0.033067
12245 1.76573E+8 96520.9 1.76573E+8 96520.9 5.91146E-7 3.23143E-10 5.83708E-7 3.21104E-10 33.3304 0.0330647
12246 1.76238E+8 96344 1.76238E+8 96344 5.94253E-7 3.24862E-10 5.86792E-7 3.22817E-10 33.3233 0.0330657
12247 1.76187E+8 96244.2 1.76187E+8 96244.2 5.98337E-7 3.26851E-10 5.90853E-7 3.248E-10 33.3162 0.0330534
12248 1.75899E+8 96079 1.75899E+8 96079 6.01641E-7 3.28627E-10 5.94054E-7 3.26549E-10 33.309 0.033052
12249 1.75514E+8 95893.1 1.75514E+8 95893.1 6.04625E-7 3.30342E-10 5.97071E-7 3.28273E-10 33.3019 0.0330563
12250 1.75164E+8 95711.1 1.75164E+8 95711.1 6.07744E-7 3.32078E-10 6.00147E-7 3.29996E-10 33.2947 0.0330578
12251 1.74996E+8 95584 1.74996E+8 95584 6.11509E-7 3.34012E-10 6.0389E-7 3.31925E-10 33.2876 0.0330518
12252 1.74454E+8 95349.4 1.74454E+8 95349.4 6.13989E-7 3.35583E-10 6.06348E-7 3.33487E-10 33.2805 0.0330624
12253 1.74228E+8 95204.2 1.74228E+8 95204.2 6.17587E-7 3.37472E-10 6.09909E-7 3.35369E-10 33.2733 0.0330586
12254 1.73903E+8 95029.8 1.73903E+8 95029.8 6.20849E-7 3.39267E-10 6.13064E-7 3.37133E-10 33.2662 0.0330592
12255 1.73496E+8 94831.5 1.73496E+8 94831.5 6.23839E-7 3.40986E-10 6.16058E-7 3.38853E-10 33.259 0.0330633
12256 1.73266E+8 94686.3 1.73266E+8 94686.3 6.27475E-7 3.42904E-10 6.19673E-7 3.40765E-10 33.2519 0.03306
12257 1.72892E+8 94502.9 1.72892E+8 94502.9 6.30605E-7 3.44692E-10 6.22752E-7 3.42538E-10 33.2448 0.0330637
12258 1.72739E+8 94380.1 1.72739E+8 94380.1 6.34565E-7 3.46712E-10 6.2666E-7 3.44546E-10 33.2376 0.0330568
12259 1.72423E+8 94205.7 1.72423E+8 94205.7 6.37939E-7 3.48549E-10 6.30035E-7 3.46383E-10 33.2305 0.0330565
12260 1.72052E+8 94024.2 1.72052E+8 94024.2 6.41136E-7 3.50374E-10 6.3316E-7 3.48188E-10 33.2233 0.0330602
12261 1.71749E+8 93857.3 1.71749E+8 93857.3 6.44594E-7 3.52259E-10 6.36615E-7 3.50072E-10 33.2162 0.03306
12262 1.71562E+8 93720.8 1.71562E+8 93720.8 6.48506E-7 3.54266E-10 6.40515E-7 3.52078E-10 33.2091 0.0330539
12263 1.71173E+8 93556.5 1.71173E+8 93556.5 6.51671E-7 3.5618E-10 6.43612E-7 3.53971E-10 33.2019 0.0330624
12264 1.70779E+8 93946 1.70779E+8 93946 6.54824E-7 3.60244E-10 6.46645E-7 3.57987E-10 33.1948 0.0331699
12265 1.69745E+8 99244.8 1.69745E+8 99244.8 6.55518E-7 3.8345E-10 6.47365E-7 3.81056E-10 33.1876 0.0341998
12266 1.66008E+8 118056 1.66008E+8 118056 6.45647E-7 4.59661E-10 6.37654E-7 4.56805E-10 33.1806 0.0377238
12267 1.62044E+8 137757 1.62044E+8 137757 6.34765E-7 5.39878E-10 6.26962E-7 5.36548E-10 33.1734 0.0412388
12268 1.62539E+8 133156 1.62539E+8 133156 6.41334E-7 5.2495E-10 6.3342E-7 5.217E-10 33.1661 0.0404691
12269 1.66519E+8 110669 1.66519E+8 110669 6.61742E-7 4.39342E-10 6.53558E-7 4.36617E-10 33.159 0.0364489
12270 1.68554E+8 95906 1.68554E+8 95906 6.74595E-7 3.83716E-10 6.66294E-7 3.81352E-10 33.1519 0.0337313
12271 1.68717E+8 92498.2 1.68717E+8 92498.2 6.80083E-7 3.72842E-10 6.71669E-7 3.70528E-10 33.1448 0.0331131
12272 1.68291E+8 92005.5 1.68291E+8 92005.5 6.83228E-7 3.73524E-10 6.74777E-7 3.71207E-10 33.1376 0.0330667
12273 1.68169E+8 91875.1 1.68169E+8 91875.1 6.87621E-7 3.75667E-10 6.79139E-7 3.73343E-10 33.1305 0.0330553
12274 1.67708E+8 91666.4 1.67708E+8 91666.4 6.90653E-7 3.77501E-10 6.82148E-7 3.75171E-10 33.1234 0.0330631
12275 1.67634E+8 91565.2 1.67634E+8 91565.2 6.95289E-7 3.79784E-10 6.86783E-7 3.77454E-10 33.1162 0.0330522
12276 1.67114E+8 91337.8 1.67114E+8 91337.8 6.98107E-7 3.81559E-10 6.8953E-7 3.79208E-10 33.1091 0.0330624
12277 1.66854E+8 91184.6 1.66854E+8 91184.6 7.02016E-7 3.83648E-10 6.93431E-7 3.81294E-10 33.1019 0.0330603
12278 1.66596E+8 91033 1.66596E+8 91033 7.05949E-7 3.85753E-10 6.9732E-7 3.8339E-10 33.0948 0.0330585
12279 1.66288E+8 90860.7 1.66288E+8 90860.7 7.09691E-7 3.87782E-10 7.01011E-7 3.85403E-10 33.0877 0.0330578
12280 1.65965E+8 90693.1 1.65965E+8 90693.1 7.13395E-7 3.89842E-10 7.04609E-7 3.87435E-10 33.0805 0.0330593
12281 1.65704E+8 90538.1 1.65704E+8 90538.1 7.17379E-7 3.91965E-10 7.08586E-7 3.89555E-10 33.0734 0.0330571
12282 1.65353E+8 90357 1.65353E+8 90357 7.20985E-7 3.93984E-10 7.12192E-7 3.91574E-10 33.0662 0.0330591
12283 1.65107E+8 90210.7 1.65107E+8 90210.7 7.25074E-7 3.96166E-10 7.16193E-7 3.93732E-10 33.0591 0.0330569
12284 1.64646E+8 90001.8 1.64646E+8 90001.8 7.28233E-7 3.9808E-10 7.19348E-7 3.95645E-10 33.052 0.0330647
12285 1.64503E+8 89879.1 1.64503E+8 89879.1 7.32812E-7 4.00386E-10 7.23843E-7 3.97929E-10 33.0448 0.0330565
12286 1.64202E+8 89715.4 1.64202E+8 89715.4 7.36711E-7 4.02521E-10 7.27772E-7 4.00072E-10 33.0377 0.0330567
12287 1.63731E+8 89503 1.63731E+8 89503 7.39862E-7 4.04445E-10 7.30775E-7 4.01954E-10 33.0305 0.033065
12288 1.63556E+8 89374.2 1.63556E+8 89374.2 7.44369E-7 4.06758E-10 7.3514E-7 4.04228E-10 33.0234 0.0330589
12289 1.63315E+8 89223.4 1.63315E+8 89223.4 7.48597E-7 4.08981E-10 7.39513E-7 4.06493E-10 33.0163 0.0330554
12290 1.62912E+8 89033.2 1.62912E+8 89033.2 7.52104E-7 4.11034E-10 7.42938E-7 4.08522E-10 33.0091 0.0330609
12291 1.62755E+8 88903.5 1.62755E+8 88903.5 7.56762E-7 4.13377E-10 7.47524E-7 4.10847E-10 33.002 0.0330528
12292 1.62328E+8 88706.8 1.62328E+8 88706.8 7.60191E-7 4.1542E-10 7.50968E-7 4.12893E-10 32.9948 0.0330596
12293 1.61985E+8 88531.5 1.61985E+8 88531.5 7.6402E-7 4.17569E-10 7.54728E-7 4.15023E-10 32.9877 0.0330618
12294 1.6188E+8 88420.7 1.6188E+8 88420.7 7.68993E-7 4.20035E-10 7.59686E-7 4.17485E-10 32.9805 0.0330519
12295 1.6145E+8 88219.1 1.6145E+8 88219.1 7.72447E-7 4.22081E-10 7.62962E-7 4.19483E-10 32.9734 0.0330581
12296 1.61147E+8 88054.5 1.61147E+8 88054.5 7.76524E-7 4.24312E-10 7.67105E-7 4.21733E-10 32.9663 0.0330582
12297 1.60895E+8 87903.4 1.60895E+8 87903.4 7.80864E-7 4.26619E-10 7.71334E-7 4.24007E-10 32.9591 0.0330558
12298 1.60503E+8 87713.4 1.60503E+8 87713.4 7.84545E-7 4.28749E-10 7.75032E-7 4.26142E-10 32.952 0.0330603
12299 1.60284E+8 87575.9 1.60284E+8 87575.9 7.89093E-7 4.31145E-10 7.79465E-7 4.28506E-10 32.9448 0.0330569
12300 1.59969E+8 87403.8 1.59969E+8 87403.8 7.93183E-7 4.33381E-10 7.83515E-7 4.30732E-10 32.9377 0.033057
12301 1.5964E+8 87235.3 1.5964E+8 87235.3 7.97222E-7 4.35644E-10 7.8753E-7 4.32988E-10 32.9306 0.0330591
12302 1.59397E+8 87086.3 1.59397E+8 87086.3 8.01713E-7 4.38017E-10 7.91991E-7 4.35354E-10 32.9234 0.033056
12303 1.58989E+8 86894.2 1.58989E+8 86894.2 8.05392E-7 4.40183E-10 7.95712E-7 4.37531E-10 32.9163 0.0330619
12304 1.58886E+8 86784.4 1.58886E+8 86784.4 8.10637E-7 4.42776E-10 8.00816E-7 4.40087E-10 32.9091 0.0330517
12305 1.58373E+8 86563.2 1.58373E+8 86563.2 8.13809E-7 4.44814E-10 8.04116E-7 4.42158E-10 32.902 0.033063
12306 1.58065E+8 86395.7 1.58065E+8 86395.7 8.1805E-7 4.47135E-10 8.08062E-7 4.44397E-10 32.8949 0.0330631
12307 1.578E+8 86242.1 1.578E+8 86242.1 8.22532E-7 4.49538E-10 8.12568E-7 4.46808E-10 32.8877 0.0330614
12308 1.57559E+8 86095.3 1.57559E+8 86095.3 8.27163E-7 4.5199E-10 8.17236E-7 4.49271E-10 32.8806 0.0330585
12309 1.57259E+8 85930 1.57259E+8 85930 8.31504E-7 4.54355E-10 8.21449E-7 4.51601E-10 32.8734 0.0330583
12310 1.57088E+8 85804.1 1.57088E+8 85804.1 8.36551E-7 4.5694E-10 8.26499E-7 4.54187E-10 32.8663 0.033052
12311 1.56508E+8 85562.1 1.56508E+8 85562.1 8.39437E-7 4.58917E-10 8.29379E-7 4.5616E-10 32.8592 0.0330665
12312 1.56293E+8 85422.8 1.56293E+8 85422.8 8.44292E-7 4.61453E-10 8.34116E-7 4.58664E-10 32.852 0.0330622
12313 1.56065E+8 85279.6 1.56065E+8 85279.6 8.49099E-7 4.63979E-10 8.38852E-7 4.61172E-10 32.8449 0.0330586
12314 1.55747E+8 85111.9 1.55747E+8 85111.9 8.53441E-7 4.66385E-10 8.43231E-7 4.63587E-10 32.8377 0.0330598
12315 1.55596E+8 84990.6 1.55596E+8 84990.6 8.5872E-7 4.69058E-10 8.48451E-7 4.66245E-10 32.8306 0.0330523
12316 1.55024E+8 84750.2 1.55024E+8 84750.2 8.617E-7 4.71085E-10 8.51392E-7 4.68261E-10 32.8235 0.0330663
12317 1.54882E+8 84629.6 1.54882E+8 84629.6 8.67076E-7 4.73785E-10 8.567E-7 4.70942E-10 32.8163 0.033058
12318 1.54579E+8 84469.7 1.54579E+8 84469.7 8.71589E-7 4.76281E-10 8.61124E-7 4.73413E-10 32.8092 0.033059
12319 1.54331E+8 84316.8 1.54331E+8 84316.8 8.76423E-7 4.78824E-10 8.65981E-7 4.75964E-10 32.802 0.0330556
12320 1.54105E+8 84191.1 1.54105E+8 84191.1 8.81417E-7 4.8154E-10 8.70891E-7 4.78655E-10 32.7949 0.0330552
12321 1.53868E+8 84099.8 1.53868E+8 84099.8 8.86366E-7 4.84467E-10 8.75663E-7 4.81533E-10 32.7877 0.0330628
12322 1.53913E+8 84118.5 1.53913E+8 84118.5 8.92976E-7 4.88046E-10 8.82227E-7 4.85099E-10 32.7806 0.0330616
12323 1.53971E+8 84143.1 1.53971E+8 84143.1 8.99719E-7 4.91689E-10 8.88964E-7 4.8874E-10 32.7735 0.0330602
12324 1.54103E+8 84184.3 1.54103E+8 84184.3 9.06944E-7 4.95456E-10 8.96111E-7 4.9249E-10 32.7663 0.0330542
12325 1.54042E+8 84175.2 1.54042E+8 84175.2 9.13079E-7 4.98951E-10 9.02167E-7 4.95961E-10 32.7592 0.0330589
12326 1.54104E+8 84196.5 1.54104E+8 84196.5 9.19995E-7 5.02653E-10 9.0907E-7 4.9966E-10 32.752 0.0330564
12327 1.54141E+8 84211.2 1.54141E+8 84211.2 9.26806E-7 5.06343E-10 9.15774E-7 5.03321E-10 32.7449 0.0330554
12328 1.54187E+8 84232.1 1.54187E+8 84232.1 9.33727E-7 5.101E-10 9.22598E-7 5.0705E-10 32.7378 0.0330546
12329 1.54105E+8 84216.7 1.54105E+8 84216.7 9.39919E-7 5.1366E-10 9.2864E-7 5.10569E-10 32.7306 0.0330603
12330 1.5415E+8 84236.5 1.5415E+8 84236.5 9.46933E-7 5.17465E-10 9.35667E-7 5.14378E-10 32.7235 0.0330594
12331 1.54333E+8 84290.6 1.54333E+8 84290.6 9.54851E-7 5.21507E-10 9.43497E-7 5.184E-10 32.7163 0.0330504
12332 1.54224E+8 84268.8 1.54224E+8 84268.8 9.61012E-7 5.25108E-10 9.49626E-7 5.21989E-10 32.7092 0.0330578
12333 1.54336E+8 84302.2 1.54336E+8 84302.2 9.68608E-7 5.29082E-10 9.56987E-7 5.25898E-10 32.7021 0.0330523
12334 1.54169E+8 84263 1.54169E+8 84263 9.7449E-7 5.32626E-10 9.6296E-7 5.29469E-10 32.6949 0.0330626
12335 1.54274E+8 84297 1.54274E+8 84297 9.82144E-7 5.36658E-10 9.70532E-7 5.33477E-10 32.6878 0.0330579
12336 1.54222E+8 84286.7 1.54222E+8 84286.7 9.88845E-7 5.40438E-10 9.77201E-7 5.37246E-10 32.6806 0.0330615
12337 1.54351E+8 84333.3 1.54351E+8 84333.3 9.96766E-7 5.44611E-10 9.84946E-7 5.41373E-10 32.6735 0.0330568
12338 1.54337E+8 84331.9 1.54337E+8 84331.9 0.00000100382 5.48508E-10 9.91939E-7 5.45252E-10 32.6663 0.033058
12339 1.54432E+8 84365.7 1.54432E+8 84365.7 0.00000101164 5.52659E-10 9.99675E-7 5.49386E-10 32.6592 0.0330545
12340 1.54404E+8 84365.5 1.54404E+8 84365.5 0.0000010187 5.56617E-10 0.00000100663 5.53312E-10 32.6521 0.0330575
12341 1.54304E+8 84344 1.54304E+8 84344 0.00000102534 5.60463E-10 0.00000101316 5.57125E-10 32.6449 0.0330639
12342 1.54336E+8 84358.3 1.54336E+8 84358.3 0.0000010329 5.64577E-10 0.00000102072 5.61238E-10 32.6378 0.0330633
12343 1.54485E+8 84402.3 1.54485E+8 84402.3 0.00000104131 5.68918E-10 0.00000102896 5.65536E-10 32.6306 0.0330559
12344 1.54374E+8 84380.7 1.54374E+8 84380.7 0.00000104801 5.72849E-10 0.00000103553 5.69429E-10 32.6235 0.0330637
12345 1.54521E+8 84426.1 1.54521E+8 84426.1 0.00000105653 5.77265E-10 0.00000104407 5.73851E-10 32.6164 0.0330568
12346 1.5456E+8 84441.4 1.5456E+8 84441.4 0.00000106437 5.81508E-10 0.00000105186 5.78082E-10 32.6092 0.0330556
12347 1.54397E+8 84404 1.54397E+8 84404 0.00000107087 5.85416E-10 0.00000105833 5.81978E-10 32.6021 0.0330657
12348 1.54525E+8 84444 1.54525E+8 84444 0.00000107944 5.89891E-10 0.00000106681 5.86432E-10 32.5949 0.0330598
12349 1.54669E+8 84490.9 1.54669E+8 84490.9 0.00000108818 5.94447E-10 0.00000107545 5.90961E-10 32.5878 0.0330537
12350 1.54535E+8 84460.2 1.54535E+8 84460.2 0.00000109503 5.98489E-10 0.00000108214 5.94957E-10 32.5807 0.033062
12351 1.5458E+8 84476.7 1.5458E+8 84476.7 0.0000011032 6.02896E-10 0.00000109017 5.99325E-10 32.5735 0.0330604
12352 1.54732E+8 84525.9 1.54732E+8 84525.9 0.0000011122 6.0757E-10 0.00000109907 6.03974E-10 32.5664 0.0330538
12353 1.54685E+8 84517 1.54685E+8 84517 0.00000111984 6.11861E-10 0.00000110674 6.08271E-10 32.5592 0.033057
12354 1.54609E+8 84502.1 1.54609E+8 84502.1 0.0000011273 6.16138E-10 0.00000111405 6.12505E-10 32.5521 0.0330622
12355 1.54806E+8 84562.2 1.54806E+8 84562.2 0.00000113683 6.20995E-10 0.00000112344 6.1733E-10 32.545 0.033053
12356 1.54694E+8 84536 1.54694E+8 84536 0.00000114414 6.2525E-10 0.00000113079 6.21592E-10 32.5378 0.0330598
12357 1.54814E+8 84576.9 1.54814E+8 84576.9 0.00000115324 6.30038E-10 0.00000113977 6.26349E-10 32.5307 0.033055
12358 1.54728E+8 84558.3 1.54728E+8 84558.3 0.00000116086 6.34413E-10 0.00000114736 6.30716E-10 32.5235 0.0330606
12359 1.54745E+8 84569.6 1.54745E+8 84569.6 0.0000011693 6.39041E-10 0.00000115573 6.35322E-10 32.5164 0.0330609
12360 1.54769E+8 84578.8 1.54769E+8 84578.8 0.00000117788 6.43697E-10 0.00000116411 6.39921E-10 32.5092 0.0330601
12361 1.54792E+8 84594.3 1.54792E+8 84594.3 0.00000118649 6.48424E-10 0.00000117269 6.44643E-10 32.5021 0.0330607
12362 1.54839E+8 84611.1 1.54839E+8 84611.1 0.00000119535 6.53201E-10 0.00000118146 6.49392E-10 32.495 0.033059
12363 1.54833E+8 84615.3 1.54833E+8 84615.3 0.00000120387 6.57915E-10 0.00000118992 6.54093E-10 32.4878 0.0330604
12364 1.54904E+8 84640.6 1.54904E+8 84640.6 0.00000121305 6.62827E-10 0.00000119892 6.58957E-10 32.4807 0.0330579
12365 1.54846E+8 84627.3 1.54846E+8 84627.3 0.00000122129 6.67475E-10 0.00000120694 6.63543E-10 32.4735 0.0330614
12366 1.54812E+8 84624.2 1.54812E+8 84624.2 0.00000122978 6.72233E-10 0.00000121555 6.68334E-10 32.4664 0.0330644
12367 1.55079E+8 84705.7 1.55079E+8 84705.7 0.00000124072 6.77702E-10 0.00000122626 6.7374E-10 32.4593 0.0330519
12368 1.54981E+8 84682.3 1.54981E+8 84682.3 0.00000124882 6.82366E-10 0.00000123435 6.78402E-10 32.4521 0.0330577
12369 1.54981E+8 84690.2 1.54981E+8 84690.2 0.00000125778 6.87324E-10 0.00000124318 6.83326E-10 32.445 0.0330593
12370 1.55146E+8 84738.8 1.55146E+8 84738.8 0.00000126814 6.92648E-10 0.00000125336 6.886E-10 32.4378 0.0330512
12371 1.5504E+8 84714.6 1.5504E+8 84714.6 0.00000127635 6.97413E-10 0.00000126141 6.9332E-10 32.4307 0.0330578
12372 1.54977E+8 84704.8 1.54977E+8 84704.8 0.00000128498 7.02329E-10 0.00000126998 6.9822E-10 32.4236 0.0330626
12373 1.55174E+8 84763.9 1.55174E+8 84763.9 0.00000129583 7.07855E-10 0.00000128079 7.03736E-10 32.4164 0.0330531
12374 1.55228E+8 84783.6 1.55228E+8 84783.6 0.00000130557 7.13092E-10 0.00000129041 7.08941E-10 32.4093 0.0330512
12375 1.55143E+8 84764.6 1.55143E+8 84764.6 0.00000131421 7.18045E-10 0.00000129885 7.13836E-10 32.4021 0.0330565
12376 1.55161E+8 84777.1 1.55161E+8 84777.1 0.00000132378 7.23294E-10 0.00000130838 7.19075E-10 32.395 0.033057
12377 1.55117E+8 84768.1 1.55117E+8 84768.1 0.00000133289 7.28401E-10 0.00000131741 7.2416E-10 32.3879 0.03306
12378 1.55041E+8 84755 1.55041E+8 84755 0.00000134177 7.33506E-10 0.00000132625 7.29249E-10 32.3807 0.0330656
12379 1.55218E+8 84809.4 1.55218E+8 84809.4 0.00000135295 7.3924E-10 0.00000133728 7.34949E-10 32.3736 0.0330572
12380 1.5517E+8 84800.9 1.5517E+8 84800.9 0.00000136221 7.44457E-10 0.00000134655 7.40167E-10 32.3664 0.0330607
12381 1.55075E+8 84780.2 1.55075E+8 84780.2 0.00000137113 7.49613E-10 0.00000135539 7.45296E-10 32.3593 0.0330668
12382 1.55211E+8 84822.2 1.55211E+8 84822.2 0.00000138217 7.55359E-10 0.00000136614 7.50967E-10 32.3521 0.0330606
12383 1.55334E+8 84859.3 1.55334E+8 84859.3 0.00000139318 7.61106E-10 0.00000137716 7.56715E-10 32.345 0.0330546
12384 1.55247E+8 84843.8 1.55247E+8 84843.8 0.00000140238 7.66419E-10 0.00000138621 7.61989E-10 32.3379 0.0330609
12385 1.55263E+8 84851.1 1.55263E+8 84851.1 0.00000141257 7.71977E-10 0.00000139632 7.67525E-10 32.3307 0.0330606
12386 1.55294E+8 84864.6 1.55294E+8 84864.6 0.00000142298 7.77632E-10 0.00000140662 7.73148E-10 32.3236 0.0330599
12387 1.5538E+8 84896.4 1.5538E+8 84896.4 0.00000143398 7.83504E-10 0.00000141745 7.78976E-10 32.3164 0.0330569
12388 1.55317E+8 84886.2 1.55317E+8 84886.2 0.00000144366 7.89018E-10 0.000001427 7.84452E-10 32.3093 0.0330617
12389 1.55351E+8 84897.6 1.55351E+8 84897.6 0.00000145433 7.94782E-10 0.00000143759 7.90198E-10 32.3022 0.0330603
12390 1.55421E+8 84921.2 1.55421E+8 84921.2 0.0000014654 8.00699E-10 0.0000014485 7.96068E-10 32.295 0.0330575
12391 1.55507E+8 84950.1 1.55507E+8 84950.1 0.00000147672 8.06709E-10 0.00000145972 8.0205E-10 32.2879 0.0330539
12392 1.55477E+8 84948.6 1.55477E+8 84948.6 0.00000148702 8.12478E-10 0.00000147006 8.07833E-10 32.2807 0.0330568
12393 1.55348E+8 84916.8 1.55348E+8 84916.8 0.00000149644 8.17999E-10 0.00000147931 8.13304E-10 32.2736 0.0330644
12394 1.55481E+8 84959.3 1.55481E+8 84959.3 0.00000150845 8.24267E-10 0.00000149117 8.19531E-10 32.2665 0.0330585
12395 1.55566E+8 84989.9 1.55566E+8 84989.9 0.0000015201 8.30476E-10 0.00000150268 8.25704E-10 32.2593 0.0330554
12396 1.55541E+8 84988.1 1.55541E+8 84988.1 0.00000153073 8.36407E-10 0.00000151331 8.31635E-10 32.2522 0.0330577
12397 1.55612E+8 85013.8 1.55612E+8 85013.8 0.00000154241 8.42657E-10 0.00000152456 8.37767E-10 32.245 0.0330552
12398 1.5556E+8 85005.8 1.5556E+8 85005.8 0.00000155294 8.48616E-10 0.00000153525 8.43765E-10 32.2379 0.0330592
12399 1.55522E+8 84997 1.55522E+8 84997 0.00000156369 8.54608E-10 0.00000154582 8.49714E-10 32.2308 0.0330615
12400 1.55558E+8 85011.9 1.55558E+8 85011.9 0.00000157526 8.60887E-10 0.00000155737 8.55983E-10 32.2236 0.0330606
12401 1.55473E+8 84996.2 1.55473E+8 84996.2 0.00000158568 8.66894E-10 0.00000156765 8.61954E-10 32.2165 0.0330666
12402 1.55682E+8 85059.3 1.55682E+8 85059.3 0.0000015992 8.73757E-10 0.00000158085 8.6873E-10 32.2093 0.0330566
12403 1.55648E+8 85052.4 1.55648E+8 85052.4 0.00000161031 8.79947E-10 0.00000159186 8.74894E-10 32.2022 0.0330589
12404 1.55596E+8 85042.6 1.55596E+8 85042.6 0.00000162132 8.86153E-10 0.00000160281 8.81083E-10 32.195 0.0330624
12405 1.55617E+8 85054.4 1.55617E+8 85054.4 0.00000163315 8.92627E-10 0.0000016143 8.8746E-10 32.1879 0.0330625
12406 1.55775E+8 85100.2 1.55775E+8 85100.2 0.00000164652 8.99505E-10 0.00000162798 8.94428E-10 32.1808 0.0330546
12407 1.55619E+8 85065.6 1.55619E+8 85065.6 0.00000165666 9.05585E-10 0.00000163782 9.00421E-10 32.1736 0.0330645
12408 1.55722E+8 85097.8 1.55722E+8 85097.8 0.00000166964 9.1242E-10 0.00000165037 9.07142E-10 32.1665 0.0330598
12409 1.55656E+8 85083.8 1.55656E+8 85083.8 0.00000168089 9.18807E-10 0.00000166185 9.13587E-10 32.1593 0.0330641
12410 1.55788E+8 85123.8 1.55788E+8 85123.8 0.00000169437 9.25825E-10 0.00000167497 9.20511E-10 32.1522 0.0330578
12411 1.55767E+8 85122.1 1.55767E+8 85122.1 0.00000170627 9.3244E-10 0.00000168688 9.27125E-10 32.1451 0.0330598
12412 1.55842E+8 85150.8 1.55842E+8 85150.8 0.00000171933 9.3944E-10 0.00000169977 9.34079E-10 32.1379 0.0330574
12413 1.55865E+8 85161.5 1.55865E+8 85161.5 0.00000173192 9.46293E-10 0.0000017122 9.4089E-10 32.1308 0.033057
12414 1.5581E+8 85148.9 1.5581E+8 85148.9 0.00000174371 9.52932E-10 0.00000172397 9.47527E-10 32.1236 0.0330604
12415 1.55866E+8 85171.4 1.55866E+8 85171.4 0.00000175684 9.60017E-10 0.00000173701 9.54586E-10 32.1165 0.0330588
12416 1.55932E+8 85194.5 1.55932E+8 85194.5 0.00000177017 9.67156E-10 0.00000175014 9.61665E-10 32.1094 0.0330563
12417 1.55778E+8 85160.1 1.55778E+8 85160.1 0.0000017811 9.73693E-10 0.00000176089 9.68153E-10 32.1022 0.0330659
12418 1.5586E+8 85185.3 1.5586E+8 85185.3 0.00000179481 9.80965E-10 0.00000177452 9.75406E-10 32.0951 0.0330621
12419 1.559E+8 85201.4 1.559E+8 85201.4 0.00000180814 9.8818E-10 0.00000178773 9.82587E-10 32.0879 0.033061
12420 1.55931E+8 85215.6 1.55931E+8 85215.6 0.00000182146 9.95429E-10 0.00000180085 9.89782E-10 32.0808 0.0330605
12421 1.56008E+8 85265.3 1.56008E+8 85265.3 0.00000183542 1.00315E-9 0.00000181473 9.9748E-10 32.0737 0.033062
12422 1.5568E+8 85432 1.5568E+8 85432 0.00000184467 1.01233E-9 0.00000182378 1.00657E-9 32.0665 0.0331293
12423 1.54497E+8 86630.2 1.54497E+8 86630.2 0.00000184372 1.03397E-9 0.00000182263 1.02801E-9 32.0594 0.0334893
12424 1.49858E+8 90724.8 1.49858E+8 90724.8 0.00000180105 1.09083E-9 0.00000178074 1.0846E-9 32.0523 0.0348004
12425 1.40457E+8 98474.8 1.40457E+8 98474.8 0.00000170003 1.19264E-9 0.00000168079 1.18586E-9 32.0453 0.0374519
12426 1.3112E+8 105925 1.3112E+8 105925 0.00000159848 1.2918E-9 0.00000158036 1.28455E-9 32.0381 0.0401995
12427 1.2934E+8 107464 1.2934E+8 107464 0.0000015884 1.31949E-9 0.00000157048 1.31214E-9 32.0307 0.0407623
12428 1.36449E+8 101810 1.36449E+8 101810 0.0000016879 1.25865E-9 0.00000166889 1.25156E-9 32.0235 0.0386243
12429 1.46635E+8 93496.6 1.46635E+8 93496.6 0.00000182686 1.16418E-9 0.00000180653 1.15763E-9 32.0164 0.0357054
12430 1.53129E+8 87823 1.53129E+8 87823 0.00000192125 1.10161E-9 0.00000189953 1.09531E-9 32.0093 0.033866
12431 1.5541E+8 85733 1.5541E+8 85733 0.00000196375 1.08326E-9 0.00000194182 1.07717E-9 32.0022 0.0332157
12432 1.56009E+8 85321.7 1.56009E+8 85321.7 0.00000198541 1.08583E-9 0.00000196312 1.07971E-9 31.9951 0.0330728
12433 1.5592E+8 85211.5 1.5592E+8 85211.5 0.0000019985 1.0922E-9 0.00000197616 1.08608E-9 31.988 0.0330608
12434 1.55852E+8 85176.1 1.55852E+8 85176.1 0.00000201194 1.09958E-9 0.00000198914 1.09332E-9 31.9808 0.0330612
12435 1.55906E+8 85176.2 1.55906E+8 85176.2 0.00000202705 1.10745E-9 0.00000200434 1.10123E-9 31.9737 0.0330555
12436 1.55848E+8 85147.9 1.55848E+8 85147.9 0.00000204083 1.11502E-9 0.00000201802 1.10877E-9 31.9665 0.0330561
12437 1.55842E+8 85130.8 1.55842E+8 85130.8 0.00000205538 1.12279E-9 0.00000203249 1.11652E-9 31.9594 0.0330535
12438 1.55669E+8 85068.5 1.55669E+8 85068.5 0.00000206781 1.13001E-9 0.00000204464 1.12366E-9 31.9523 0.0330598
12439 1.55534E+8 85024.1 1.55534E+8 85024.1 0.00000208081 1.13751E-9 0.0000020575 1.13112E-9 31.9451 0.0330655
12440 1.55598E+8 85023.1 1.55598E+8 85023.1 0.00000209659 1.14565E-9 0.0000020731 1.13921E-9 31.938 0.0330585
12441 1.55567E+8 85001.7 1.55567E+8 85001.7 0.00000211121 1.15357E-9 0.00000208736 1.14704E-9 31.9308 0.0330575
12442 1.55507E+8 84971.2 1.55507E+8 84971.2 0.00000212551 1.16141E-9 0.00000210198 1.15497E-9 31.9237 0.033058
12443 1.55465E+8 84946.5 1.55465E+8 84946.5 0.00000214017 1.1694E-9 0.00000211614 1.16282E-9 31.9166 0.0330577
12444 1.55312E+8 84891.3 1.55312E+8 84891.3 0.00000215338 1.17702E-9 0.00000212939 1.17044E-9 31.9094 0.0330632
12445 1.55285E+8 84869.4 1.55285E+8 84869.4 0.00000216842 1.18514E-9 0.00000214441 1.17856E-9 31.9023 0.0330619
12446 1.55411E+8 84891.1 1.55411E+8 84891.1 0.00000218575 1.19395E-9 0.00000216125 1.18724E-9 31.8951 0.0330526
12447 1.55074E+8 84784.4 1.55074E+8 84784.4 0.00000219664 1.20099E-9 0.00000217206 1.19425E-9 31.888 0.0330677
12448 1.55077E+8 84772.9 1.55077E+8 84772.9 0.00000221242 1.20943E-9 0.00000218774 1.20267E-9 31.8809 0.0330652
12449 1.5506E+8 84754.8 1.5506E+8 84754.8 0.00000222804 1.21784E-9 0.0000022033 1.21106E-9 31.8737 0.0330634
12450 1.55021E+8 84727 1.55021E+8 84727 0.00000224343 1.22616E-9 0.00000221859 1.21936E-9 31.8666 0.0330621
12451 1.54913E+8 84687.4 1.54913E+8 84687.4 0.00000225795 1.23437E-9 0.00000223276 1.22747E-9 31.8594 0.0330659
12452 1.55046E+8 84711.5 1.55046E+8 84711.5 0.00000227606 1.24357E-9 0.00000225077 1.23665E-9 31.8523 0.0330565
12453 1.5491E+8 84660.6 1.5491E+8 84660.6 0.00000229038 1.25173E-9 0.00000226503 1.24479E-9 31.8451 0.033061
12454 1.54786E+8 84608.5 1.54786E+8 84608.5 0.00000230495 1.25993E-9 0.00000227947 1.25294E-9 31.838 0.0330641
12455 1.54772E+8 84593.9 1.54772E+8 84593.9 0.00000232125 1.26874E-9 0.00000229541 1.26166E-9 31.8309 0.0330628
12456 1.5475E+8 84571.9 1.5475E+8 84571.9 0.00000233754 1.2775E-9 0.00000231159 1.27039E-9 31.8237 0.0330609
12457 1.54689E+8 84542.1 1.54689E+8 84542.1 0.00000235336 1.28619E-9 0.00000232724 1.27903E-9 31.8166 0.0330615
12458 1.548E+8 84560.3 1.548E+8 84560.3 0.00000237194 1.29569E-9 0.00000234559 1.28848E-9 31.8094 0.0330532
12459 1.5467E+8 84510.3 1.5467E+8 84510.3 0.00000238693 1.30421E-9 0.00000236046 1.29696E-9 31.8023 0.0330573
12460 1.54472E+8 84444.4 1.54472E+8 84444.4 0.00000240097 1.31254E-9 0.00000237459 1.3053E-9 31.7952 0.0330656
12461 1.54575E+8 84455.9 1.54575E+8 84455.9 0.00000241977 1.32211E-9 0.00000239295 1.31477E-9 31.788 0.0330569
12462 1.54587E+8 84448.1 1.54587E+8 84448.1 0.00000243731 1.33147E-9 0.00000241023 1.32405E-9 31.7809 0.033054
12463 1.5443E+8 84388.5 1.5443E+8 84388.5 0.00000245227 1.34006E-9 0.00000242542 1.33271E-9 31.7737 0.0330592
12464 1.54447E+8 84380.8 1.54447E+8 84380.8 0.00000247013 1.34955E-9 0.00000244302 1.34212E-9 31.7666 0.0330559
12465 1.54338E+8 84338.9 1.54338E+8 84338.9 0.00000248607 1.35855E-9 0.00000245861 1.35103E-9 31.7595 0.0330593
12466 1.54266E+8 84302 1.54266E+8 84302 0.00000250273 1.36768E-9 0.00000247539 1.36019E-9 31.7523 0.0330597
12467 1.54331E+8 84308.8 1.54331E+8 84308.8 0.00000252171 1.37759E-9 0.00000249431 1.37008E-9 31.7452 0.0330542
12468 1.54219E+8 84265.5 1.54219E+8 84265.5 0.00000253795 1.38675E-9 0.00000251016 1.37914E-9 31.738 0.0330576
12469 1.54166E+8 84239.4 1.54166E+8 84239.4 0.00000255526 1.39625E-9 0.00000252749 1.38865E-9 31.7309 0.0330582
12470 1.54125E+8 84211.9 1.54125E+8 84211.9 0.00000257289 1.4058E-9 0.00000254446 1.39802E-9 31.7238 0.0330572
12471 1.54142E+8 84200.5 1.54142E+8 84200.5 0.00000259161 1.41569E-9 0.00000256311 1.40788E-9 31.7166 0.0330532
12472 1.53949E+8 84136.4 1.53949E+8 84136.4 0.00000260692 1.42474E-9 0.00000257825 1.41689E-9 31.7095 0.0330612
12473 1.53887E+8 84105.8 1.53887E+8 84105.8 0.00000262454 1.43443E-9 0.00000259572 1.42654E-9 31.7023 0.0330619
12474 1.53852E+8 84082.6 1.53852E+8 84082.6 0.00000264274 1.44431E-9 0.00000261382 1.43639E-9 31.6952 0.0330611
12475 1.53959E+8 84097.6 1.53959E+8 84097.6 0.00000266354 1.45492E-9 0.00000263434 1.44693E-9 31.6881 0.0330525
12476 1.53797E+8 84038.3 1.53797E+8 84038.3 0.00000267981 1.46432E-9 0.00000265014 1.45619E-9 31.6809 0.0330583
12477 1.53699E+8 83998.9 1.53699E+8 83998.9 0.00000269729 1.47412E-9 0.00000266765 1.466E-9 31.6738 0.0330611
12478 1.53649E+8 83971.1 1.53649E+8 83971.1 0.00000271573 1.48419E-9 0.00000268597 1.47603E-9 31.6666 0.033061
12479 1.53759E+8 83987.2 1.53759E+8 83987.2 0.00000273715 1.49512E-9 0.00000270747 1.487E-9 31.6595 0.0330524
12480 1.53621E+8 83934.1 1.53621E+8 83934.1 0.0000027543 1.50488E-9 0.00000272427 1.49666E-9 31.6523 0.0330567
12481 1.53608E+8 83923 1.53608E+8 83923 0.00000277378 1.51545E-9 0.00000274332 1.50711E-9 31.6452 0.0330559
12482 1.53422E+8 83853.7 1.53422E+8 83853.7 0.0000027903 1.52506E-9 0.00000275987 1.51673E-9 31.6381 0.0330623
12483 1.5338E+8 83832.7 1.5338E+8 83832.7 0.00000280952 1.53561E-9 0.00000277905 1.52727E-9 31.6309 0.0330627
12484 1.53427E+8 83829.8 1.53427E+8 83829.8 0.00000283051 1.54656E-9 0.00000279965 1.5381E-9 31.6238 0.0330571
12485 1.53272E+8 83775.5 1.53272E+8 83775.5 0.00000284792 1.55663E-9 0.00000281673 1.54808E-9 31.6166 0.033063
12486 1.53133E+8 83722 1.53133E+8 83722 0.00000286572 1.56679E-9 0.00000283425 1.55816E-9 31.6095 0.0330675
12487 1.53268E+8 83743.4 1.53268E+8 83743.4 0.00000288882 1.57842E-9 0.00000285744 1.56981E-9 31.6024 0.0330571
12488 1.53223E+8 83718.8 1.53223E+8 83718.8 0.00000290866 1.58927E-9 0.0000028768 1.58054E-9 31.5952 0.0330572
12489 1.53062E+8 83660.8 1.53062E+8 83660.8 0.00000292644 1.59955E-9 0.00000289457 1.59081E-9 31.5881 0.0330631
12490 1.53028E+8 83640.7 1.53028E+8 83640.7 0.00000294674 1.61062E-9 0.00000291445 1.60178E-9 31.5809 0.0330628
12491 1.52907E+8 83591 1.52907E+8 83591 0.00000296552 1.6212E-9 0.00000293337 1.61239E-9 31.5738 0.0330661
12492 1.53004E+8 83604.6 1.53004E+8 83604.6 0.00000298867 1.63308E-9 0.00000295624 1.6242E-9 31.5667 0.0330582
12493 1.52986E+8 83584.9 1.52986E+8 83584.9 0.00000300973 1.6444E-9 0.00000297723 1.63549E-9 31.5595 0.0330562
12494 1.52847E+8 83536.4 1.52847E+8 83536.4 0.00000302854 1.65522E-9 0.00000299575 1.64624E-9 31.5524 0.0330617
12495 1.52807E+8 83508.6 1.52807E+8 83508.6 0.00000304944 1.66652E-9 0.00000301644 1.65748E-9 31.5452 0.0330605
12496 1.52676E+8 83459.8 1.52676E+8 83459.8 0.00000306867 1.67749E-9 0.00000303558 1.66842E-9 31.5381 0.033065
12497 1.52687E+8 83448.1 1.52687E+8 83448.1 0.00000309087 1.68927E-9 0.00000305742 1.68011E-9 31.531 0.0330616
12498 1.52615E+8 83418.4 1.52615E+8 83418.4 0.00000311156 1.70078E-9 0.00000307792 1.69156E-9 31.5238 0.0330635
12499 1.52694E+8 83425 1.52694E+8 83425 0.00000313551 1.71311E-9 0.00000310148 1.70379E-9 31.5167 0.0330562
12500 1.52681E+8 83405.5 1.52681E+8 83405.5 0.0000031577 1.72498E-9 0.00000312376 1.71569E-9 31.5095 0.0330538
12501 1.52525E+8 83351.8 1.52525E+8 83351.8 0.00000317704 1.73621E-9 0.0000031426 1.72678E-9 31.5024 0.03306
12502 1.52551E+8 83344.6 1.52551E+8 83344.6 0.00000320038 1.74851E-9 0.00000316627 1.73917E-9 31.4952 0.0330558
12503 1.52275E+8 83255.2 1.52275E+8 83255.2 0.00000321749 1.75915E-9 0.00000318301 1.74971E-9 31.4881 0.0330679
12504 1.52255E+8 83232.9 1.52255E+8 83232.9 0.00000324011 1.77128E-9 0.00000320515 1.76171E-9 31.481 0.0330657
12505 1.52265E+8 83225.2 1.52265E+8 83225.2 0.00000326356 1.78381E-9 0.00000322814 1.77411E-9 31.4738 0.0330631
12506 1.52235E+8 83198.8 1.52235E+8 83198.8 0.00000328629 1.79602E-9 0.00000325122 1.78641E-9 31.4667 0.0330611
12507 1.52148E+8 83164.6 1.52148E+8 83164.6 0.00000330795 1.80815E-9 0.00000327235 1.79839E-9 31.4595 0.0330637
12508 1.52147E+8 83151.3 1.52147E+8 83151.3 0.00000333162 1.82081E-9 0.00000329589 1.81102E-9 31.4524 0.0330612
12509 1.5218E+8 83147.2 1.5218E+8 83147.2 0.00000335623 1.83377E-9 0.00000332028 1.82392E-9 31.4453 0.0330568
12510 1.51976E+8 83076.9 1.51976E+8 83076.9 0.00000337576 1.84535E-9 0.00000333954 1.83543E-9 31.4381 0.033065
12511 1.51999E+8 83069.1 1.51999E+8 83069.1 0.00000340047 1.8584E-9 0.00000336386 1.84837E-9 31.431 0.0330609
12512 1.51981E+8 83052.3 1.51981E+8 83052.3 0.00000342443 1.87135E-9 0.00000338762 1.86126E-9 31.4238 0.0330596
12513 1.52024E+8 83048.8 1.52024E+8 83048.8 0.00000344996 1.88468E-9 0.00000341263 1.87446E-9 31.4167 0.0330542
12514 1.51869E+8 82991.8 1.51869E+8 82991.8 0.00000347114 1.89688E-9 0.00000343403 1.88672E-9 31.4096 0.0330597
12515 1.51816E+8 82966.6 1.51816E+8 82966.6 0.00000349477 1.90989E-9 0.00000345752 1.89969E-9 31.4024 0.0330605
12516 1.51751E+8 82934.5 1.51751E+8 82934.5 0.00000351831 1.92284E-9 0.00000348106 1.91263E-9 31.3953 0.0330612
12517 1.51671E+8 82898.4 1.51671E+8 82898.4 0.00000354167 1.93577E-9 0.00000350396 1.92544E-9 31.3881 0.0330626
12518 1.51608E+8 82864.8 1.51608E+8 82864.8 0.00000356556 1.94885E-9 0.00000352752 1.93844E-9 31.381 0.0330628
12519 1.51639E+8 82861.4 1.51639E+8 82861.4 0.00000359184 1.96274E-9 0.0000035535 1.95224E-9 31.3739 0.0330588
12520 1.51556E+8 82827.7 1.51556E+8 82827.7 0.0000036156 1.976E-9 0.00000357694 1.96541E-9 31.3667 0.0330611
12521 1.51639E+8 82835.3 1.51639E+8 82835.3 0.00000364351 1.99035E-9 0.0000036045 1.97967E-9 31.3596 0.0330536
12522 1.51461E+8 82772.4 1.51461E+8 82772.4 0.00000366532 2.00309E-9 0.0000036262 1.99238E-9 31.3524 0.0330605
12523 1.51474E+8 82760.2 1.51474E+8 82760.2 0.00000369191 2.01715E-9 0.00000365252 2.00636E-9 31.3453 0.0330565
12524 1.5147E+8 82748.4 1.5147E+8 82748.4 0.00000371826 2.03131E-9 0.00000367881 2.0205E-9 31.3382 0.0330547
12525 1.51317E+8 82693.2 1.51317E+8 82693.2 0.00000374114 2.04451E-9 0.0000037014 2.03362E-9 31.331 0.0330603
12526 1.51254E+8 82662.2 1.51254E+8 82662.2 0.00000376638 2.05839E-9 0.00000372645 2.04744E-9 31.3239 0.033061
12527 1.51129E+8 82611.9 1.51129E+8 82611.9 0.00000379024 2.07188E-9 0.00000375024 2.06092E-9 31.3167 0.0330646
12528 1.51123E+8 82602.8 1.51123E+8 82602.8 0.00000381723 2.08649E-9 0.0000037769 2.07544E-9 31.3096 0.0330635
12529 1.50952E+8 82727.9 1.50952E+8 82727.9 0.00000384022 2.10467E-9 0.00000379923 2.0934E-9 31.3025 0.0331074
12530 1.4974E+8 84291.5 1.4974E+8 84291.5 0.00000383655 2.16013E-9 0.00000379614 2.14866E-9 31.2953 0.0335553
12531 1.4442E+8 91324.9 1.4442E+8 91324.9 0.00000372641 2.35807E-9 0.00000368644 2.3453E-9 31.2883 0.035569
12532 1.34911E+8 103718 1.34911E+8 103718 0.00000350587 2.69734E-9 0.00000346871 2.68308E-9 31.2812 0.0392195
12533 1.29785E+8 109770 1.29785E+8 109770 0.00000339749 2.87334E-9 0.00000336138 2.85821E-9 31.2739 0.0411279
12534 1.35684E+8 102528 1.35684E+8 102528 0.00000357798 2.70141E-9 0.0000035395 2.68687E-9 31.2666 0.0388671
12535 1.44855E+8 90312.3 1.44855E+8 90312.3 0.00000384693 2.39684E-9 0.00000380631 2.38407E-9 31.2595 0.0353061
12536 1.49631E+8 83893.6 1.49631E+8 83893.6 0.00000400188 2.24334E-9 0.00000395963 2.23141E-9 31.2524 0.0334849
12537 1.50632E+8 82505.6 1.50632E+8 82505.6 0.00000405738 2.22233E-9 0.00000401468 2.2106E-9 31.2453 0.0330977
12538 1.50628E+8 82334.1 1.50628E+8 82334.1 0.00000408637 2.23365E-9 0.00000404314 2.2218E-9 31.2382 0.0330638
12539 1.50685E+8 82324.8 1.50685E+8 82324.8 0.0000041172 2.2494E-9 0.00000407375 2.2375E-9 31.231 0.0330557
12540 1.50476E+8 82245.3 1.50476E+8 82245.3 0.00000414096 2.26333E-9 0.00000409722 2.25134E-9 31.2239 0.0330626
12541 1.5036E+8 82190.9 1.5036E+8 82190.9 0.00000416743 2.27805E-9 0.00000412378 2.26609E-9 31.2168 0.0330645
12542 1.50233E+8 82133.5 1.50233E+8 82133.5 0.00000419375 2.29277E-9 0.00000414982 2.28073E-9 31.2096 0.0330669
12543 1.50282E+8 82127.5 1.50282E+8 82127.5 0.00000422518 2.30903E-9 0.00000418073 2.29685E-9 31.2025 0.0330603
12544 1.50232E+8 82088.7 1.50232E+8 82088.7 0.00000425401 2.32447E-9 0.00000420938 2.31225E-9 31.1953 0.033058
12545 1.50108E+8 82032.5 1.50108E+8 82032.5 0.00000428097 2.33953E-9 0.00000423607 2.32722E-9 31.1882 0.0330603
12546 1.50016E+8 81985.5 1.50016E+8 81985.5 0.00000430904 2.35495E-9 0.00000426373 2.34254E-9 31.1811 0.0330609
12547 1.4995E+8 81944.2 1.4995E+8 81944.2 0.000004338 2.37063E-9 0.00000429221 2.35809E-9 31.1739 0.0330599
12548 1.49896E+8 81907.2 1.49896E+8 81907.2 0.0000043675 2.38654E-9 0.00000432153 2.37395E-9 31.1668 0.0330584
12549 1.49705E+8 81836.8 1.49705E+8 81836.8 0.0000043932 2.40158E-9 0.00000434727 2.38899E-9 31.1596 0.0330653
12550 1.49742E+8 81821.9 1.49742E+8 81821.9 0.00000442575 2.41834E-9 0.00000437916 2.40557E-9 31.1525 0.0330582
12551 1.49619E+8 81765.9 1.49619E+8 81765.9 0.00000445384 2.43402E-9 0.00000440715 2.42123E-9 31.1453 0.0330605
12552 1.49459E+8 81700.5 1.49459E+8 81700.5 0.00000448095 2.4495E-9 0.00000443398 2.43663E-9 31.1382 0.0330649
12553 1.49479E+8 81682.4 1.49479E+8 81682.4 0.00000451366 2.46649E-9 0.00000446618 2.45349E-9 31.1311 0.033059
12554 1.49378E+8 81633.5 1.49378E+8 81633.5 0.00000454295 2.48269E-9 0.00000449546 2.46968E-9 31.1239 0.0330603
12555 1.49265E+8 81580.3 1.49265E+8 81580.3 0.00000457204 2.49885E-9 0.00000452427 2.48577E-9 31.1168 0.033062
12556 1.492E+8 81540.7 1.492E+8 81540.7 0.00000460278 2.51553E-9 0.00000455467 2.50235E-9 31.1096 0.0330612
12557 1.49181E+8 81513.4 1.49181E+8 81513.4 0.00000463519 2.53271E-9 0.00000458696 2.51949E-9 31.1025 0.0330578
12558 1.49116E+8 81473.1 1.49116E+8 81473.1 0.00000466638 2.54961E-9 0.00000461765 2.53627E-9 31.0954 0.0330569
12559 1.49046E+8 81430.1 1.49046E+8 81430.1 0.00000469761 2.56652E-9 0.00000464886 2.55317E-9 31.0882 0.0330559
12560 1.48963E+8 81383.7 1.48963E+8 81383.7 0.00000472864 2.58344E-9 0.00000467903 2.56985E-9 31.0811 0.0330556
12561 1.48797E+8 81319.4 1.48797E+8 81319.4 0.00000475722 2.5999E-9 0.00000470746 2.58627E-9 31.0739 0.033061
12562 1.48652E+8 81259.1 1.48652E+8 81259.1 0.00000478666 2.6166E-9 0.00000473641 2.60282E-9 31.0668 0.0330648
12563 1.4866E+8 81237.8 1.4866E+8 81237.8 0.00000482119 2.63464E-9 0.00000477105 2.62091E-9 31.0597 0.0330596
12564 1.48659E+8 81214.3 1.48659E+8 81214.3 0.00000485573 2.65276E-9 0.0000048049 2.63884E-9 31.0525 0.0330549
12565 1.48439E+8 81133.4 1.48439E+8 81133.4 0.00000488328 2.66911E-9 0.00000483287 2.6553E-9 31.0454 0.0330629
12566 1.48458E+8 81114.2 1.48458E+8 81114.2 0.00000491893 2.68761E-9 0.00000486771 2.67359E-9 31.0382 0.0330569
12567 1.48364E+8 81066.3 1.48364E+8 81066.3 0.00000495103 2.70527E-9 0.00000489911 2.69105E-9 31.0311 0.0330576
12568 1.48173E+8 80994.5 1.48173E+8 80994.5 0.00000498007 2.72224E-9 0.00000492825 2.70804E-9 31.024 0.0330643
12569 1.48249E+8 80992.2 1.48249E+8 80992.2 0.00000501834 2.74167E-9 0.00000496672 2.72754E-9 31.0168 0.0330554
12570 1.48047E+8 80912.8 1.48047E+8 80912.8 0.00000504743 2.75861E-9 0.00000499494 2.74423E-9 31.0097 0.0330616
12571 1.47921E+8 80856.9 1.47921E+8 80856.9 0.00000507928 2.77647E-9 0.0000050264 2.76198E-9 31.0025 0.0330643
12572 1.47867E+8 80819.9 1.47867E+8 80819.9 0.00000511381 2.79508E-9 0.00000506057 2.78049E-9 30.9954 0.0330628
12573 1.47925E+8 80814.7 1.47925E+8 80814.7 0.00000515248 2.81494E-9 0.00000509929 2.80037E-9 30.9882 0.0330552
12574 1.47733E+8 80738.8 1.47733E+8 80738.8 0.00000518267 2.83245E-9 0.00000512905 2.81776E-9 30.9811 0.0330612
12575 1.47703E+8 80708.5 1.47703E+8 80708.5 0.00000521872 2.85166E-9 0.0000051646 2.83684E-9 30.974 0.0330584
12576 1.47483E+8 80629 1.47483E+8 80629 0.00000524829 2.86927E-9 0.00000519393 2.85437E-9 30.9668 0.0330667
12577 1.47458E+8 80599.8 1.47458E+8 80599.8 0.00000528503 2.8888E-9 0.00000523093 2.87398E-9 30.9597 0.0330635
12578 1.47399E+8 80562.8 1.47399E+8 80562.8 0.00000532076 2.90815E-9 0.00000526578 2.89309E-9 30.9525 0.0330625
12579 1.4743E+8 80546 1.4743E+8 80546 0.00000536004 2.92839E-9 0.00000530477 2.91325E-9 30.9454 0.0330555
12580 1.47234E+8 80470.2 1.47234E+8 80470.2 0.00000539127 2.9466E-9 0.00000533576 2.93139E-9 30.9383 0.033062
12581 1.47379E+8 80487.9 1.47379E+8 80487.9 0.00000543525 2.96836E-9 0.00000537969 2.95315E-9 30.9311 0.0330494
12582 1.47215E+8 80424.9 1.47215E+8 80424.9 0.0000054681 2.9873E-9 0.00000541148 2.9718E-9 30.924 0.0330549
12583 1.47078E+8 80361.6 1.47078E+8 80361.6 0.00000550214 3.00633E-9 0.00000544523 2.99075E-9 30.9168 0.0330572
12584 1.46857E+8 80280.1 1.46857E+8 80280.1 0.00000553325 3.0248E-9 0.00000547637 3.00922E-9 30.9097 0.0330653
12585 1.46949E+8 80284.2 1.46949E+8 80284.2 0.00000557642 3.04665E-9 0.00000551976 3.03113E-9 30.9026 0.0330558
12586 1.4685E+8 80234.9 1.4685E+8 80234.9 0.00000561259 3.06659E-9 0.00000555534 3.05091E-9 30.8954 0.0330568
12587 1.46649E+8 80155.6 1.46649E+8 80155.6 0.00000564509 3.08552E-9 0.00000558708 3.06964E-9 30.8883 0.0330631
12588 1.46698E+8 80149.6 1.46698E+8 80149.6 0.00000568742 3.10739E-9 0.00000562877 3.09133E-9 30.8811 0.0330563
12589 1.46559E+8 80090.1 1.46559E+8 80090.1 0.00000572274 3.12734E-9 0.00000566416 3.11129E-9 30.874 0.0330597
12590 1.46554E+8 80064.3 1.46554E+8 80064.3 0.00000576357 3.14874E-9 0.00000570466 3.13261E-9 30.8669 0.033055
12591 1.46465E+8 80019.5 1.46465E+8 80019.5 0.00000580135 3.16952E-9 0.00000574181 3.15322E-9 30.8597 0.0330557
12592 1.4637E+8 79970.9 1.4637E+8 79970.9 0.00000583916 3.19031E-9 0.0000057799 3.17407E-9 30.8526 0.0330564
12593 1.46191E+8 79899.4 1.46191E+8 79899.4 0.00000587381 3.21029E-9 0.00000581389 3.19388E-9 30.8454 0.0330618
12594 1.46169E+8 79868.1 1.46169E+8 79868.1 0.000005915 3.23203E-9 0.00000585446 3.21546E-9 30.8383 0.0330578
12595 1.46125E+8 79836 1.46125E+8 79836 0.00000595557 3.25388E-9 0.00000589446 3.23714E-9 30.8312 0.0330562
12596 1.46016E+8 79785.4 1.46016E+8 79785.4 0.00000599379 3.27513E-9 0.00000593235 3.25831E-9 30.824 0.0330581
12597 1.45932E+8 79738.7 1.45932E+8 79738.7 0.00000603327 3.29666E-9 0.00000597193 3.27987E-9 30.8169 0.0330579
12598 1.45829E+8 79691.7 1.45829E+8 79691.7 0.00000607223 3.31834E-9 0.00000601025 3.30136E-9 30.8097 0.0330598
12599 1.45682E+8 79628.1 1.45682E+8 79628.1 0.00000610958 3.33946E-9 0.00000604742 3.32243E-9 30.8026 0.0330633
12600 1.45593E+8 79582.2 1.45593E+8 79582.2 0.00000614963 3.36146E-9 0.00000608745 3.34443E-9 30.7954 0.0330639
12601 1.4555E+8 79547.4 1.4555E+8 79547.4 0.00000619185 3.38406E-9 0.00000612953 3.36698E-9 30.7883 0.0330615
12602 1.45484E+8 79506.2 1.45484E+8 79506.2 0.0000062334 3.40655E-9 0.00000617051 3.38932E-9 30.7812 0.0330605
12603 1.45265E+8 79428.3 1.45265E+8 79428.3 0.0000062686 3.42759E-9 0.00000620604 3.41045E-9 30.774 0.0330692
12604 1.45395E+8 79441 1.45395E+8 79441 0.00000631916 3.45269E-9 0.00000625498 3.43513E-9 30.7669 0.033057
12605 1.45358E+8 79415.5 1.45358E+8 79415.5 0.00000636287 3.47634E-9 0.00000629787 3.45854E-9 30.7597 0.0330559
12606 1.45008E+8 79708.8 1.45008E+8 79708.8 0.00000639296 3.51433E-9 0.00000632839 3.49654E-9 30.7526 0.0331573
12607 1.4186E+8 84963.4 1.4186E+8 84963.4 0.00000629683 3.77357E-9 0.00000623253 3.75425E-9 30.7458 0.0346151
12608 1.32619E+8 102300 1.32619E+8 102300 0.0000059229 4.57352E-9 0.00000586272 4.55022E-9 30.7397 0.0392882
12609 1.27693E+8 110698 1.27693E+8 110698 0.00000573767 4.97284E-9 0.00000568013 4.94783E-9 30.7336 0.0416367
12610 1.35242E+8 97192.3 1.35242E+8 97192.3 0.00000611337 4.38873E-9 0.00000605179 4.36662E-9 30.7276 0.0379018
12611 1.42868E+8 82335.1 1.42868E+8 82335.1 0.00000649529 3.74197E-9 0.00000642957 3.72299E-9 30.7219 0.0339471
12612 1.44612E+8 79238.7 1.44612E+8 79238.7 0.0000066129 3.62342E-9 0.00000654673 3.60524E-9 30.7161 0.033104
12613 1.44653E+8 79043.4 1.44653E+8 79043.4 0.00000665362 3.63578E-9 0.00000658594 3.61724E-9 30.7102 0.0330586
12614 1.44472E+8 78969.9 1.44472E+8 78969.9 0.00000668442 3.65378E-9 0.00000661737 3.6354E-9 30.7043 0.0330639
12615 1.44521E+8 78959.5 1.44521E+8 78959.5 0.00000672595 3.67475E-9 0.00000665827 3.65622E-9 30.6985 0.0330561
12616 1.44422E+8 78909.9 1.44422E+8 78909.9 0.00000676085 3.69405E-9 0.00000669296 3.67546E-9 30.6926 0.0330571
12617 1.44411E+8 78888.4 1.44411E+8 78888.4 0.00000680009 3.71474E-9 0.0000067314 3.69594E-9 30.6868 0.0330538
12618 1.44314E+8 78840.6 1.44314E+8 78840.6 0.00000683547 3.73431E-9 0.00000676643 3.71542E-9 30.6809 0.0330549
12619 1.44218E+8 78791.7 1.44218E+8 78791.7 0.00000687104 3.75393E-9 0.00000680205 3.73504E-9 30.675 0.0330557
12620 1.44084E+8 78732.7 1.44084E+8 78732.7 0.00000690503 3.77318E-9 0.00000683587 3.75423E-9 30.6692 0.0330587
12621 1.44075E+8 78708.5 1.44075E+8 78708.5 0.0000069452 3.7942E-9 0.00000687528 3.77506E-9 30.6633 0.0330546
12622 1.43812E+8 78612.4 1.43812E+8 78612.4 0.00000697327 3.81184E-9 0.00000690256 3.79248E-9 30.6574 0.0330646
12623 1.43808E+8 78592 1.43808E+8 78592 0.00000701407 3.83325E-9 0.00000694366 3.81395E-9 30.6516 0.0330607
12624 1.43642E+8 78525.7 1.43642E+8 78525.7 0.00000704715 3.85254E-9 0.00000697667 3.83323E-9 30.6457 0.0330659
12625 1.43614E+8 78492.4 1.43614E+8 78492.4 0.00000708722 3.87354E-9 0.00000701541 3.85387E-9 30.6399 0.0330621
12626 1.43567E+8 78461.3 1.43567E+8 78461.3 0.00000712655 3.89476E-9 0.0000070554 3.87527E-9 30.634 0.033061
12627 1.43463E+8 78409.5 1.43463E+8 78409.5 0.0000071632 3.91507E-9 0.00000709135 3.89538E-9 30.6281 0.0330621
12628 1.43477E+8 78391.6 1.43477E+8 78391.6 0.00000720605 3.9372E-9 0.00000713376 3.9174E-9 30.6223 0.0330567
12629 1.43334E+8 78330.5 1.43334E+8 78330.5 0.00000724114 3.95724E-9 0.00000716891 3.93745E-9 30.6164 0.0330603
12630 1.43245E+8 78285.7 1.43245E+8 78285.7 0.00000727923 3.97822E-9 0.00000720654 3.95831E-9 30.6106 0.033061
12631 1.43192E+8 78247.7 1.43192E+8 78247.7 0.00000731932 3.99968E-9 0.00000724583 3.97956E-9 30.6047 0.0330592
12632 1.42987E+8 78170.5 1.42987E+8 78170.5 0.00000735177 4.01921E-9 0.00000727867 3.99918E-9 30.5988 0.0330665
12633 1.43077E+8 78173.1 1.43077E+8 78173.1 0.00000739965 4.04297E-9 0.00000732564 4.0227E-9 30.593 0.0330567
12634 1.42944E+8 78115.4 1.42944E+8 78115.4 0.00000743622 4.06375E-9 0.00000736244 4.04353E-9 30.5871 0.0330599
12635 1.42837E+8 78067.3 1.42837E+8 78067.3 0.00000747434 4.08512E-9 0.00000739994 4.06475E-9 30.5812 0.0330621
12636 1.42778E+8 78025.3 1.42778E+8 78025.3 0.00000751515 4.1069E-9 0.00000743999 4.08631E-9 30.5754 0.03306
12637 1.4264E+8 77967.9 1.4264E+8 77967.9 0.00000755207 4.12802E-9 0.00000747691 4.10744E-9 30.5695 0.0330638
12638 1.42706E+8 77964.5 1.42706E+8 77964.5 0.00000759995 4.15209E-9 0.00000752501 4.13159E-9 30.5637 0.0330554
12639 1.42558E+8 77899.9 1.42558E+8 77899.9 0.0000076367 4.17305E-9 0.00000756059 4.15221E-9 30.5578 0.0330589
12640 1.42434E+8 77846.7 1.42434E+8 77846.7 0.0000076749 4.19471E-9 0.00000759814 4.17368E-9 30.5519 0.033062
12641 1.42461E+8 77830.9 1.42461E+8 77830.9 0.00000772149 4.21852E-9 0.00000764484 4.19753E-9 30.5461 0.0330555
12642 1.42382E+8 77787.5 1.42382E+8 77787.5 0.00000776263 4.24096E-9 0.00000768541 4.21982E-9 30.5402 0.0330554
12643 1.42108E+8 77693.6 1.42108E+8 77693.6 0.00000779321 4.26074E-9 0.0000077163 4.23967E-9 30.5344 0.0330673
12644 1.42238E+8 77705.7 1.42238E+8 77705.7 0.00000784616 4.28645E-9 0.000007768 4.26505E-9 30.5285 0.0330548
12645 1.42064E+8 77634.2 1.42064E+8 77634.2 0.00000788265 4.30768E-9 0.00000780511 4.28646E-9 30.5226 0.0330598
12646 1.42016E+8 77602.2 1.42016E+8 77602.2 0.00000792628 4.33121E-9 0.00000784739 4.3096E-9 30.5168 0.0330586
12647 1.41915E+8 77552.8 1.41915E+8 77552.8 0.0000079672 4.35389E-9 0.00000788844 4.33233E-9 30.5109 0.0330598
12648 1.41887E+8 77523.5 1.41887E+8 77523.5 0.00000801246 4.37784E-9 0.00000793306 4.3561E-9 30.5051 0.0330569
12649 1.41687E+8 77442.5 1.41687E+8 77442.5 0.00000804822 4.39898E-9 0.0000079679 4.37698E-9 30.4992 0.0330629
12650 1.41715E+8 77428.6 1.41715E+8 77428.6 0.00000809712 4.42403E-9 0.0000080166 4.40198E-9 30.4933 0.0330566
12651 1.41609E+8 77374.3 1.41609E+8 77374.3 0.00000813863 4.44693E-9 0.0000080589 4.42509E-9 30.4875 0.0330574
12652 1.41578E+8 77342.9 1.41578E+8 77342.9 0.00000818468 4.47125E-9 0.00000810332 4.44897E-9 30.4816 0.0330543
12653 1.41392E+8 77266.3 1.41392E+8 77266.3 0.00000822197 4.49308E-9 0.00000814051 4.47078E-9 30.4757 0.0330597
12654 1.41334E+8 77227.5 1.41334E+8 77227.5 0.00000826692 4.51722E-9 0.00000818496 4.49479E-9 30.4699 0.0330581
12655 1.41333E+8 77202.4 1.41333E+8 77202.4 0.00000831547 4.54232E-9 0.00000823321 4.5198E-9 30.464 0.0330529
12656 1.41154E+8 77128.7 1.41154E+8 77128.7 0.00000835374 4.56463E-9 0.00000827117 4.54202E-9 30.4582 0.033058
12657 1.40975E+8 77057.2 1.40975E+8 77057.2 0.00000839228 4.58725E-9 0.00000830943 4.56455E-9 30.4523 0.0330636
12658 1.40967E+8 77047.9 1.40967E+8 77047.9 0.00000844106 4.61364E-9 0.00000835789 4.59085E-9 30.4464 0.0330626
12659 1.40727E+8 77063.4 1.40727E+8 77063.4 0.00000847622 4.64172E-9 0.00000839348 4.61897E-9 30.4406 0.0330942
12660 1.40503E+8 77504.1 1.40503E+8 77504.1 0.00000851245 4.69585E-9 0.00000842848 4.67248E-9 30.4347 0.0332154
12661 1.39463E+8 79138.4 1.39463E+8 79138.4 0.00000849899 4.82349E-9 0.00000841456 4.79912E-9 30.4289 0.0336896
12662 1.36888E+8 83659 1.36888E+8 83659 0.00000839081 5.12982E-9 0.00000830893 5.10421E-9 30.423 0.0349644
12663 1.31846E+8 92261.8 1.31846E+8 92261.8 0.00000812896 5.69142E-9 0.00000804866 5.66276E-9 30.4172 0.0374154
12664 1.24881E+8 103302 1.24881E+8 103302 0.00000774471 6.40977E-9 0.00000766912 6.37849E-9 30.4114 0.0406796
12665 1.19311E+8 112298 1.19311E+8 112298 0.00000744304 7.00751E-9 0.00000736897 6.97344E-9 30.4055 0.0433902
12666 1.17753E+8 114727 1.17753E+8 114727 0.0000073897 7.1991E-9 0.00000731594 7.16418E-9 30.3995 0.0441419
12667 1.20973E+8 109314 1.20973E+8 109314 0.00000763692 6.8979E-9 0.00000756125 6.86424E-9 30.3936 0.0425071
12668 1.27355E+8 98888.7 1.27355E+8 98888.7 0.00000808718 6.27586E-9 0.00000800846 6.24514E-9 30.3877 0.0394019
12669 1.3347E+8 88258.1 1.3347E+8 88258.1 0.00000852509 5.63449E-9 0.00000844154 5.60629E-9 30.3819 0.0363619
12670 1.37212E+8 81106.2 1.37212E+8 81106.2 0.00000881523 5.20929E-9 0.00000872924 5.18329E-9 30.3761 0.0343809
12671 1.3901E+8 77814.4 1.3901E+8 77814.4 0.00000898309 5.02801E-9 0.00000889645 5.00343E-9 30.3702 0.0334589
12672 1.39521E+8 76687.6 1.39521E+8 76687.6 0.000009069 4.98464E-9 0.00000898055 4.96017E-9 30.3644 0.0331554
12673 1.39623E+8 76384.9 1.39623E+8 76384.9 0.00000912894 4.99425E-9 0.00000904033 4.96992E-9 30.3585 0.0330781
12674 1.39669E+8 76316.7 1.39669E+8 76316.7 0.00000918564 5.01915E-9 0.00000909641 4.99472E-9 30.3527 0.0330579
12675 1.39515E+8 76247 1.39515E+8 76247 0.00000922941 5.04404E-9 0.00000913835 5.01911E-9 30.3468 0.0330611
12676 1.3939E+8 76189.5 1.3939E+8 76189.5 0.00000927533 5.06986E-9 0.0000091849 5.0451E-9 30.3409 0.0330634
12677 1.39302E+8 76142.3 1.39302E+8 76142.3 0.00000932396 5.09649E-9 0.00000923296 5.07157E-9 30.3351 0.0330636
12678 1.39272E+8 76113.6 1.39272E+8 76113.6 0.00000937676 5.12453E-9 0.00000928603 5.09969E-9 30.3292 0.033061
12679 1.39116E+8 76051.1 1.39116E+8 76051.1 0.00000942134 5.15042E-9 0.00000932918 5.12518E-9 30.3234 0.0330658
12680 1.39103E+8 76023 1.39103E+8 76023 0.00000947583 5.17878E-9 0.00000938478 5.15386E-9 30.3175 0.0330613
12681 1.3904E+8 75985.6 1.3904E+8 75985.6 0.00000952719 5.20666E-9 0.00000943435 5.18123E-9 30.3116 0.0330607
12682 1.38877E+8 75916.6 1.38877E+8 75916.6 0.00000957194 5.23249E-9 0.00000947986 5.20726E-9 30.3058 0.033065
12683 1.38927E+8 75908.4 1.38927E+8 75908.4 0.00000963172 5.26269E-9 0.00000953838 5.23714E-9 30.2999 0.0330572
12684 1.38841E+8 75863.3 1.38841E+8 75863.3 0.00000968234 5.2905E-9 0.0000095885 5.26481E-9 30.294 0.0330577
12685 1.38729E+8 75813.5 1.38729E+8 75813.5 0.00000973138 5.3181E-9 0.00000963634 5.29209E-9 30.2882 0.0330602
12686 1.38683E+8 75776 1.38683E+8 75776 0.0000097854 5.34673E-9 0.0000096915 5.32102E-9 30.2823 0.0330574
12687 1.385E+8 75705.8 1.385E+8 75705.8 0.0000098299 5.37316E-9 0.00000973579 5.34738E-9 30.2765 0.033064
12688 1.38409E+8 75658.7 1.38409E+8 75658.7 0.00000988122 5.4014E-9 0.00000978506 5.37507E-9 30.2706 0.0330645
12689 1.38399E+8 75633.2 1.38399E+8 75633.2 0.00000993856 5.43131E-9 0.00000984353 5.40528E-9 30.2647 0.0330602
12690 1.38302E+8 75584.2 1.38302E+8 75584.2 0.00000999 5.4597E-9 0.00000989297 5.43312E-9 30.2589 0.033061
12691 1.38272E+8 75553.6 1.38272E+8 75553.6 0.0000100466 5.48958E-9 0.00000994978 5.46309E-9 30.253 0.0330579
12692 1.3819E+8 75511.9 1.3819E+8 75511.9 0.0000100996 5.5188E-9 0.0000100016 5.49199E-9 30.2472 0.0330587
12693 1.38148E+8 75476.4 1.38148E+8 75476.4 0.0000101559 5.54864E-9 0.0000100583 5.52191E-9 30.2413 0.0330559
12694 1.3794E+8 75397.6 1.3794E+8 75397.6 0.0000102002 5.57542E-9 0.0000101016 5.54843E-9 30.2354 0.0330635
12695 1.37865E+8 75355.7 1.37865E+8 75355.7 0.0000102545 5.60507E-9 0.0000101555 5.57795E-9 30.2296 0.0330634
12696 1.37848E+8 75330.2 1.37848E+8 75330.2 0.0000103135 5.6361E-9 0.0000102144 5.60896E-9 30.2237 0.0330598
12697 1.3766E+8 75254.4 1.3766E+8 75254.4 0.0000103601 5.66355E-9 0.0000102608 5.63636E-9 30.2178 0.0330657
12698 1.37661E+8 75232 1.37661E+8 75232 0.000010421 5.69515E-9 0.0000103202 5.66753E-9 30.212 0.0330606
12699 1.37691E+8 75221.4 1.37691E+8 75221.4 0.0000104846 5.72783E-9 0.0000103841 5.70035E-9 30.2061 0.0330548
12700 1.37562E+8 75163.8 1.37562E+8 75163.8 0.0000105363 5.75706E-9 0.000010435 5.72933E-9 30.2003 0.0330575
12701 1.37383E+8 75090.5 1.37383E+8 75090.5 0.0000105845 5.78528E-9 0.000010482 5.75722E-9 30.1944 0.033063
12702 1.37326E+8 75053.8 1.37326E+8 75053.8 0.0000106423 5.81644E-9 0.0000105401 5.78847E-9 30.1885 0.0330618
12703 1.37235E+8 75007.9 1.37235E+8 75007.9 0.0000106978 5.84706E-9 0.0000105959 5.81916E-9 30.1827 0.0330625
12704 1.37205E+8 74977.5 1.37205E+8 74977.5 0.0000107583 5.87905E-9 0.0000106551 5.85081E-9 30.1768 0.0330595
12705 1.37131E+8 74938.7 1.37131E+8 74938.7 0.0000108156 5.91053E-9 0.0000107116 5.88204E-9 30.171 0.0330599
12706 1.36954E+8 74865.4 1.36954E+8 74865.4 0.0000108652 5.93948E-9 0.000010762 5.91121E-9 30.1651 0.033065
12707 1.36963E+8 74846.2 1.36963E+8 74846.2 0.0000109298 5.97284E-9 0.0000108254 5.94428E-9 30.1592 0.0330597
12708 1.37011E+8 74841.1 1.37011E+8 74841.1 0.000010998 6.00756E-9 0.0000108923 5.97865E-9 30.1534 0.0330527
12709 1.36768E+8 74751.2 1.36768E+8 74751.2 0.0000110429 6.03561E-9 0.0000109373 6.00668E-9 30.1475 0.0330623
12710 1.36618E+8 74687.5 1.36618E+8 74687.5 0.0000110957 6.06592E-9 0.0000109899 6.03695E-9 30.1417 0.0330663
12711 1.3666E+8 74676.3 1.3666E+8 74676.3 0.0000111643 6.10065E-9 0.000011058 6.07154E-9 30.1358 0.0330588
12712 1.36726E+8 74672.7 1.36726E+8 74672.7 0.0000112354 6.13621E-9 0.0000111286 6.10697E-9 30.1299 0.0330499
12713 1.36477E+8 74580.5 1.36477E+8 74580.5 0.0000112808 6.16467E-9 0.0000111736 6.13529E-9 30.1241 0.0330597
12714 1.3646E+8 74556.7 1.3646E+8 74556.7 0.0000113458 6.19895E-9 0.0000112378 6.16941E-9 30.1182 0.0330565
12715 1.36379E+8 74513.7 1.36379E+8 74513.7 0.0000114057 6.23179E-9 0.0000112972 6.20206E-9 30.1123 0.0330567
12716 1.3616E+8 74431.9 1.3616E+8 74431.9 0.0000114543 6.26153E-9 0.0000113449 6.23157E-9 30.1065 0.0330652
12717 1.36211E+8 74421.8 1.36211E+8 74421.8 0.000011526 6.29748E-9 0.0000114156 6.26727E-9 30.1006 0.0330567
12718 1.36055E+8 74362.3 1.36055E+8 74362.3 0.0000115804 6.32944E-9 0.0000114704 6.29931E-9 30.0948 0.0330624
12719 1.36053E+8 74337.9 1.36053E+8 74337.9 0.0000116484 6.36457E-9 0.0000115386 6.33451E-9 30.0889 0.0330572
12720 1.35916E+8 74276 1.35916E+8 74276 0.0000117051 6.39665E-9 0.0000115941 6.36626E-9 30.083 0.0330601
12721 1.35744E+8 74206.8 1.35744E+8 74206.8 0.000011759 6.42825E-9 0.0000116473 6.39764E-9 30.0772 0.0330656
12722 1.35801E+8 74203.8 1.35801E+8 74203.8 0.0000118331 6.46581E-9 0.000011721 6.43512E-9 30.0713 0.033058
12723 1.3568E+8 74148 1.3568E+8 74148 0.000011892 6.49888E-9 0.0000117801 6.46826E-9 30.0655 0.0330603
12724 1.35609E+8 74106.4 1.35609E+8 74106.4 0.0000119556 6.53344E-9 0.0000118428 6.50252E-9 30.0596 0.0330597
12725 1.3558E+8 74079.1 1.3558E+8 74079.1 0.0000120233 6.5694E-9 0.0000119105 6.53854E-9 30.0537 0.0330572
12726 1.35482E+8 74029.3 1.35482E+8 74029.3 0.0000120852 6.60359E-9 0.000011971 6.5723E-9 30.0479 0.033058
12727 1.35352E+8 73972 1.35352E+8 73972 0.0000121447 6.63728E-9 0.00001203 6.60587E-9 30.042 0.0330611
12728 1.35264E+8 73924.6 1.35264E+8 73924.6 0.0000122081 6.67199E-9 0.0000120933 6.64053E-9 30.0362 0.0330612
12729 1.35272E+8 73907.6 1.35272E+8 73907.6 0.0000122806 6.70968E-9 0.0000121639 6.67776E-9 30.0303 0.0330565
12730 1.35074E+8 73830.8 1.35074E+8 73830.8 0.0000123347 6.74211E-9 0.000012218 6.71015E-9 30.0244 0.0330634
12731 1.34967E+8 73780.2 1.34967E+8 73780.2 0.0000123974 6.77709E-9 0.0000122803 6.74502E-9 30.0186 0.0330652
12732 1.349E+8 73738.8 1.349E+8 73738.8 0.0000124641 6.81312E-9 0.0000123479 6.78127E-9 30.0127 0.0330642
12733 1.34894E+8 73719.9 1.34894E+8 73719.9 0.0000125367 6.85139E-9 0.000012419 6.81915E-9 30.0068 0.0330607
12734 1.34916E+8 73702.3 1.34916E+8 73702.3 0.0000126125 6.89002E-9 0.0000124928 6.85725E-9 30.001 0.033054
12735 1.34787E+8 73644.4 1.34787E+8 73644.4 0.0000126745 6.92509E-9 0.0000125558 6.89259E-9 29.9951 0.0330569
12736 1.34617E+8 73576.2 1.34617E+8 73576.2 0.000012733 6.95936E-9 0.0000126135 6.92665E-9 29.9893 0.0330624
12737 1.34531E+8 73530.5 1.34531E+8 73530.5 0.0000127996 6.99591E-9 0.0000126788 6.96282E-9 29.9834 0.0330627
12738 1.34423E+8 73481 1.34423E+8 73481 0.0000128645 7.03229E-9 0.0000127443 6.99939E-9 29.9775 0.0330648
12739 1.34356E+8 73441.1 1.34356E+8 73441.1 0.0000129337 7.0698E-9 0.0000128113 7.0363E-9 29.9717 0.0330641
12740 1.34416E+8 73432.9 1.34416E+8 73432.9 0.0000130156 7.11058E-9 0.0000128939 7.07726E-9 29.9658 0.0330548
12741 1.34197E+8 73353.8 1.34197E+8 73353.8 0.0000130707 7.14466E-9 0.0000129486 7.11119E-9 29.96 0.033064
12742 1.34175E+8 73324.3 1.34175E+8 73324.3 0.0000131454 7.18376E-9 0.0000130224 7.15009E-9 29.9541 0.0330601
12743 1.3406E+8 73272 1.3406E+8 73272 0.0000132114 7.22085E-9 0.0000130865 7.18664E-9 29.9482 0.0330624
12744 1.34023E+8 73241.6 1.34023E+8 73241.6 0.0000132854 7.26027E-9 0.0000131603 7.22601E-9 29.9424 0.0330601
12745 1.3387E+8 73178.1 1.3387E+8 73178.1 0.0000133483 7.29665E-9 0.0000132239 7.26259E-9 29.9365 0.0330646
12746 1.33867E+8 73155.5 1.33867E+8 73155.5 0.0000134264 7.33725E-9 0.0000133009 7.30292E-9 29.9306 0.0330599
12747 1.3386E+8 73133 1.3386E+8 73133 0.0000135046 7.37812E-9 0.0000133789 7.34371E-9 29.9248 0.0330558
12748 1.33679E+8 73063.2 1.33679E+8 73063.2 0.0000135655 7.41439E-9 0.0000134378 7.37939E-9 29.9189 0.0330624
12749 1.33561E+8 73006.1 1.33561E+8 73006.1 0.0000136333 7.45216E-9 0.0000135059 7.41725E-9 29.9131 0.033064
12750 1.33568E+8 72988.5 1.33568E+8 72988.5 0.0000137141 7.49414E-9 0.0000135863 7.45913E-9 29.9072 0.0330592
12751 1.33398E+8 72921.8 1.33398E+8 72921.8 0.0000137772 7.53131E-9 0.0000136475 7.49579E-9 29.9013 0.0330651
12752 1.3346E+8 72914.3 1.3346E+8 72914.3 0.0000138646 7.5748E-9 0.000013735 7.53931E-9 29.8955 0.0330557
12753 1.33373E+8 72869.3 1.33373E+8 72869.3 0.000013937 7.61464E-9 0.0000138083 7.57941E-9 29.8896 0.0330563
12754 1.33295E+8 72827.3 1.33295E+8 72827.3 0.0000140107 7.65499E-9 0.0000138806 7.61936E-9 29.8838 0.0330565
12755 1.33187E+8 72778.5 1.33187E+8 72778.5 0.0000140817 7.69481E-9 0.0000139502 7.65882E-9 29.8779 0.0330587
12756 1.3311E+8 72735.7 1.3311E+8 72735.7 0.0000141562 7.73549E-9 0.0000140245 7.69943E-9 29.872 0.0330586
12757 1.32931E+8 72662.2 1.32931E+8 72662.2 0.0000142203 7.77311E-9 0.0000140895 7.73727E-9 29.8662 0.0330641
12758 1.32892E+8 72630.1 1.32892E+8 72630.1 0.0000142999 7.8154E-9 0.0000141675 7.77917E-9 29.8603 0.0330616
12759 1.3294E+8 72621.4 1.3294E+8 72621.4 0.0000143891 7.86037E-9 0.0000142548 7.82361E-9 29.8545 0.0330536
12760 1.32656E+8 72520.5 1.32656E+8 72520.5 0.0000144427 7.8956E-9 0.000014307 7.85842E-9 29.8486 0.0330661
12761 1.32717E+8 72515.3 1.32717E+8 72515.3 0.0000145343 7.94141E-9 0.000014398 7.90409E-9 29.8427 0.0330572
12762 1.3249E+8 72430.6 1.3249E+8 72430.6 0.0000145947 7.9788E-9 0.0000144597 7.94182E-9 29.8369 0.0330663
12763 1.3257E+8 72429 1.3257E+8 72429 0.0000146893 8.02551E-9 0.0000145544 7.98859E-9 29.831 0.033056
12764 1.32418E+8 72365 1.32418E+8 72365 0.0000147587 8.06552E-9 0.0000146227 8.02829E-9 29.8252 0.0330603
12765 1.32228E+8 72290.4 1.32228E+8 72290.4 0.0000148242 8.1046E-9 0.0000146864 8.06685E-9 29.8193 0.033067
12766 1.32273E+8 72278.4 1.32273E+8 72278.4 0.0000149164 8.15087E-9 0.000014779 8.1132E-9 29.8134 0.0330586
12767 1.32118E+8 72214.9 1.32118E+8 72214.9 0.0000149865 8.1916E-9 0.0000148471 8.15342E-9 29.8076 0.0330635
12768 1.3206E+8 72177.2 1.3206E+8 72177.2 0.0000150681 8.23549E-9 0.0000149287 8.19733E-9 29.8017 0.0330621
12769 1.32044E+8 72150.1 1.32044E+8 72150.1 0.0000151548 8.28076E-9 0.000015015 8.24246E-9 29.7958 0.0330578
12770 1.31861E+8 72076 1.31861E+8 72076 0.0000152227 8.32089E-9 0.0000150824 8.28242E-9 29.79 0.0330639
12771 1.31864E+8 72057.1 1.31864E+8 72057.1 0.0000153126 8.36761E-9 0.0000151714 8.32895E-9 29.7841 0.033059
12772 1.31679E+8 71984.1 1.31679E+8 71984.1 0.000015381 8.40826E-9 0.0000152397 8.36956E-9 29.7783 0.0330656
12773 1.31681E+8 71960.3 1.31681E+8 71960.3 0.0000154716 8.45487E-9 0.0000153298 8.41602E-9 29.7724 0.0330598
12774 1.31533E+8 71897.3 1.31533E+8 71897.3 0.000015545 8.49713E-9 0.0000154024 8.45806E-9 29.7665 0.033064
12775 1.31517E+8 71869.9 1.31517E+8 71869.9 0.0000156346 8.54384E-9 0.0000154902 8.50431E-9 29.7607 0.0330596
12776 1.31461E+8 71831.8 1.31461E+8 71831.8 0.0000157198 8.58954E-9 0.0000155755 8.55005E-9 29.7548 0.033058
12777 1.31418E+8 71798.3 1.31418E+8 71798.3 0.000015807 8.63598E-9 0.0000156619 8.59623E-9 29.7489 0.0330556
12778 1.31385E+8 71765.5 1.31385E+8 71765.5 0.0000158959 8.68278E-9 0.0000157497 8.64275E-9 29.7431 0.0330523
12779 1.31131E+8 71676.9 1.31131E+8 71676.9 0.0000159585 8.72302E-9 0.0000158117 8.68279E-9 29.7372 0.0330638
12780 1.31036E+8 71626.4 1.31036E+8 71626.4 0.0000160407 8.76813E-9 0.0000158947 8.72816E-9 29.7314 0.0330641
12781 1.3113E+8 71630.9 1.3113E+8 71630.9 0.0000161465 8.82022E-9 0.0000159977 8.77949E-9 29.7255 0.0330533
12782 1.31005E+8 71574.9 1.31005E+8 71574.9 0.000016226 8.86514E-9 0.0000160774 8.82445E-9 29.7196 0.0330561
12783 1.30912E+8 71526.2 1.30912E+8 71526.2 0.0000163097 8.91119E-9 0.0000161607 8.87035E-9 29.7138 0.0330567
12784 1.30725E+8 71450.6 1.30725E+8 71450.6 0.0000163822 8.95411E-9 0.0000162325 8.91313E-9 29.7079 0.0330627
12785 1.30603E+8 71396.5 1.30603E+8 71396.5 0.0000164632 8.99994E-9 0.0000163128 8.95874E-9 29.7021 0.0330657
12786 1.30643E+8 71384.7 1.30643E+8 71384.7 0.000016565 9.05131E-9 0.0000164141 9.01001E-9 29.6962 0.0330579
12787 1.30602E+8 71353.5 1.30602E+8 71353.5 0.0000166571 9.10055E-9 0.0000165044 9.05874E-9 29.6903 0.0330559
12788 1.30413E+8 71278.7 1.30413E+8 71278.7 0.0000167308 9.14444E-9 0.0000165794 9.10298E-9 29.6845 0.0330624
12789 1.30397E+8 71252.4 1.30397E+8 71252.4 0.0000168271 9.19482E-9 0.0000166737 9.15282E-9 29.6786 0.0330584
12790 1.30362E+8 71220.2 1.30362E+8 71220.2 0.0000169214 9.24469E-9 0.0000167668 9.20234E-9 29.6728 0.0330554
12791 1.30153E+8 71139.9 1.30153E+8 71139.9 0.0000169936 9.28853E-9 0.000016838 9.24592E-9 29.6669 0.0330633
12792 1.30098E+8 71102.9 1.30098E+8 71102.9 0.0000170863 9.33828E-9 0.0000169313 9.29586E-9 29.661 0.0330616
12793 1.30037E+8 71061.7 1.30037E+8 71061.7 0.0000171787 9.38775E-9 0.0000170221 9.34487E-9 29.6552 0.0330598
12794 1.30037E+8 71041.1 1.30037E+8 71041.1 0.0000172797 9.44019E-9 0.000017123 9.39729E-9 29.6493 0.033055
12795 1.29777E+8 70947.6 1.29777E+8 70947.6 0.0000173465 9.4832E-9 0.0000171889 9.44001E-9 29.6434 0.0330663
12796 1.29729E+8 70911.5 1.29729E+8 70911.5 0.0000174421 9.53408E-9 0.000017282 9.49024E-9 29.6376 0.0330639
12797 1.2963E+8 70862.6 1.2963E+8 70862.6 0.0000175311 9.58349E-9 0.0000173723 9.53999E-9 29.6317 0.0330652
12798 1.29542E+8 70816.1 1.29542E+8 70816.1 0.0000176222 9.63354E-9 0.0000174631 9.58995E-9 29.6259 0.0330657
12799 1.29498E+8 70782.9 1.29498E+8 70782.9 0.0000177198 9.68562E-9 0.00001756 9.64185E-9 29.62 0.0330635
12800 1.29494E+8 70760.1 1.29494E+8 70760.1 0.0000178235 9.73942E-9 0.0000176621 9.69526E-9 29.6141 0.0330586
12801 1.29394E+8 70711.4 1.29394E+8 70711.4 0.0000179144 9.78993E-9 0.0000177509 9.74519E-9 29.6083 0.03306
12802 1.29289E+8 70657.6 1.29289E+8 70657.6 0.0000180051 9.83996E-9 0.0000178423 9.79539E-9 29.6024 0.0330608
12803 1.29321E+8 70645.7 1.29321E+8 70645.7 0.0000181154 9.89615E-9 0.0000179521 9.85145E-9 29.5966 0.033054
12804 1.29156E+8 70577.8 1.29156E+8 70577.8 0.0000181986 9.94475E-9 0.0000180336 9.89957E-9 29.5907 0.0330592
12805 1.28976E+8 70507.8 1.28976E+8 70507.8 0.00001828 9.9933E-9 0.0000181147 9.94799E-9 29.5848 0.0330659
12806 1.29026E+8 70498.5 1.29026E+8 70498.5 0.0000183947 1.00507E-8 0.0000182288 1.00053E-8 29.579 0.0330573
12807 1.28819E+8 70418.7 1.28819E+8 70418.7 0.0000184731 1.00984E-8 0.0000183067 1.00528E-8 29.5731 0.0330651
12808 1.28735E+8 70373.1 1.28735E+8 70373.1 0.0000185697 1.01512E-8 0.000018402 1.01052E-8 29.5673 0.0330651
12809 1.28646E+8 70327.6 1.28646E+8 70327.6 0.0000186659 1.02042E-8 0.0000184959 1.01577E-8 29.5614 0.0330659
12810 1.28667E+8 70309.4 1.28667E+8 70309.4 0.0000187787 1.02616E-8 0.0000186093 1.02152E-8 29.5555 0.0330589
12811 1.28509E+8 70245.8 1.28509E+8 70245.8 0.0000188659 1.03125E-8 0.0000186955 1.02659E-8 29.5497 0.0330643
12812 1.28467E+8 70213 1.28467E+8 70213 0.0000189705 1.03683E-8 0.0000188004 1.03218E-8 29.5438 0.033062
12813 1.28388E+8 70165.9 1.28388E+8 70165.9 0.0000190704 1.04223E-8 0.0000188987 1.03753E-8 29.5379 0.033061
12814 1.28397E+8 70149.2 1.28397E+8 70149.2 0.0000191837 1.0481E-8 0.0000190108 1.04337E-8 29.5321 0.033056
12815 1.28156E+8 70059.6 1.28156E+8 70059.6 0.0000192604 1.05292E-8 0.0000190873 1.04818E-8 29.5262 0.0330659
12816 1.28211E+8 70054.1 1.28211E+8 70054.1 0.0000193819 1.05903E-8 0.0000192079 1.05426E-8 29.5204 0.0330574
12817 1.28035E+8 69984.7 1.28035E+8 69984.7 0.0000194691 1.06419E-8 0.0000192966 1.05947E-8 29.5145 0.0330637
12818 1.27917E+8 69930.2 1.27917E+8 69930.2 0.0000195654 1.06962E-8 0.0000193907 1.06483E-8 29.5086 0.0330662
12819 1.27933E+8 69913.1 1.27933E+8 69913.1 0.0000196829 1.07564E-8 0.0000195061 1.0708E-8 29.5028 0.03306
12820 1.27822E+8 69858.7 1.27822E+8 69858.7 0.0000197815 1.08112E-8 0.0000196059 1.07632E-8 29.4969 0.0330615
12821 1.27786E+8 69828.3 1.27786E+8 69828.3 0.0000198921 1.087E-8 0.0000197141 1.08213E-8 29.4911 0.033059
12822 1.27691E+8 69779 1.27691E+8 69779 0.0000199942 1.09262E-8 0.0000198153 1.08772E-8 29.4852 0.0330596
12823 1.27682E+8 69752.8 1.27682E+8 69752.8 0.0000201102 1.09863E-8 0.0000199314 1.09374E-8 29.4793 0.0330546
12824 1.27428E+8 69663.2 1.27428E+8 69663.2 0.0000201883 1.10367E-8 0.0000200091 1.09876E-8 29.4735 0.0330662
12825 1.27338E+8 69616.4 1.27338E+8 69616.4 0.0000202925 1.10941E-8 0.0000201121 1.10447E-8 29.4676 0.0330668
12826 1.27391E+8 69605.2 1.27391E+8 69605.2 0.0000204205 1.11576E-8 0.000020237 1.11074E-8 29.4617 0.0330573
12827 1.27323E+8 69567.5 1.27323E+8 69567.5 0.0000205295 1.12171E-8 0.0000203467 1.11671E-8 29.4559 0.0330572
12828 1.27203E+8 69512 1.27203E+8 69512 0.0000206306 1.1274E-8 0.0000204478 1.12239E-8 29.45 0.0330595
12829 1.2705E+8 69449 1.2705E+8 69449 0.000020727 1.133E-8 0.0000205411 1.12791E-8 29.4442 0.0330644
12830 1.27106E+8 69442 1.27106E+8 69442 0.0000208581 1.13955E-8 0.0000206732 1.13449E-8 29.4383 0.0330555
12831 1.26915E+8 69368.9 1.26915E+8 69368.9 0.0000209492 1.14504E-8 0.0000207625 1.13993E-8 29.4324 0.0330629
12832 1.26842E+8 69326.3 1.26842E+8 69326.3 0.0000210601 1.15106E-8 0.0000208733 1.14594E-8 29.4266 0.0330623
12833 1.2679E+8 69364.1 1.2679E+8 69364.1 0.0000211752 1.15847E-8 0.000020988 1.15334E-8 29.4207 0.0330782
12834 1.26247E+8 71062.1 1.26247E+8 71062.1 0.0000212081 1.19403E-8 0.000021019 1.18867E-8 29.4149 0.0335543
12835 1.23531E+8 84468.7 1.23531E+8 84468.7 0.0000208728 1.42882E-8 0.0000206895 1.42248E-8 29.4091 0.0369908
12836 1.1828E+8 110374 1.1828E+8 110374 0.0000201028 1.87784E-8 0.000019924 1.86951E-8 29.4032 0.043212
12837 1.17119E+8 116035 1.17119E+8 116035 0.0000200251 1.98282E-8 0.000019849 1.97414E-8 29.3972 0.0445075
12838 1.21506E+8 93584.1 1.21506E+8 93584.1 0.0000208981 1.60743E-8 0.0000207129 1.6003E-8 29.3913 0.0392349
12839 1.25302E+8 73543.9 1.25302E+8 73543.9 0.0000216764 1.27166E-8 0.0000214846 1.26599E-8 29.3855 0.0342577
12840 1.26149E+8 69256.8 1.26149E+8 69256.8 0.0000219508 1.20507E-8 0.0000217561 1.19971E-8 29.3797 0.033136
12841 1.26138E+8 68941.9 1.26138E+8 68941.9 0.0000220776 1.20668E-8 0.0000218834 1.20137E-8 29.3738 0.0330624
12842 1.25967E+8 68866.8 1.25967E+8 68866.8 0.0000221774 1.21245E-8 0.0000219819 1.2071E-8 29.368 0.0330667
12843 1.25969E+8 68845 1.25969E+8 68845 0.000022308 1.2192E-8 0.0000221122 1.21383E-8 29.3621 0.0330614
12844 1.25919E+8 68810.1 1.25919E+8 68810.1 0.0000224303 1.22574E-8 0.0000222315 1.2203E-8 29.3562 0.0330595
12845 1.25863E+8 68773.1 1.25863E+8 68773.1 0.0000225521 1.23228E-8 0.0000223514 1.22679E-8 29.3504 0.033058
12846 1.25749E+8 68716.7 1.25749E+8 68716.7 0.0000226642 1.23851E-8 0.0000224644 1.23305E-8 29.3445 0.0330594
12847 1.25626E+8 68666.1 1.25626E+8 68666.1 0.0000227752 1.24488E-8 0.0000225736 1.23936E-8 29.3387 0.0330634
12848 1.25593E+8 68634.8 1.25593E+8 68634.8 0.0000229029 1.25162E-8 0.0000227 1.24607E-8 29.3328 0.0330602
12849 1.25494E+8 68585.4 1.25494E+8 68585.4 0.0000230194 1.25807E-8 0.0000228167 1.25252E-8 29.3269 0.0330613
12850 1.25352E+8 68524 1.25352E+8 68524 0.0000231285 1.26433E-8 0.0000229269 1.25881E-8 29.3211 0.0330652
12851 1.25361E+8 68503.6 1.25361E+8 68503.6 0.0000232661 1.27139E-8 0.0000230594 1.26573E-8 29.3152 0.0330592
12852 1.25295E+8 68463.2 1.25295E+8 68463.2 0.0000233907 1.27811E-8 0.0000231853 1.27249E-8 29.3094 0.033058
12853 1.25242E+8 68428.5 1.25242E+8 68428.5 0.0000235181 1.28497E-8 0.0000233107 1.27929E-8 29.3035 0.0330567
12854 1.25213E+8 68399.8 1.25213E+8 68399.8 0.000023651 1.29198E-8 0.0000234439 1.28632E-8 29.2976 0.0330536
12855 1.25043E+8 68329 1.25043E+8 68329 0.0000237576 1.29823E-8 0.0000235501 1.29255E-8 29.2918 0.033059
12856 1.25035E+8 68304.6 1.25035E+8 68304.6 0.0000238959 1.3054E-8 0.0000236847 1.29962E-8 29.2859 0.033054
12857 1.24836E+8 68231.3 1.24836E+8 68231.3 0.000023998 1.31166E-8 0.0000237871 1.30588E-8 29.2801 0.0330627
12858 1.24774E+8 68191.4 1.24774E+8 68191.4 0.0000241273 1.31861E-8 0.0000239174 1.31286E-8 29.2742 0.0330611
12859 1.24681E+8 68142.6 1.24681E+8 68142.6 0.0000242508 1.3254E-8 0.000024039 1.3196E-8 29.2683 0.0330616
12860 1.24645E+8 68113.1 1.24645E+8 68113.1 0.0000243864 1.33261E-8 0.0000241731 1.32677E-8 29.2625 0.0330592
12861 1.24587E+8 68073.6 1.24587E+8 68073.6 0.0000245183 1.33967E-8 0.0000243052 1.33383E-8 29.2566 0.0330574
12862 1.24447E+8 68012.1 1.24447E+8 68012.1 0.0000246347 1.34633E-8 0.0000244215 1.3405E-8 29.2507 0.0330611
12863 1.24349E+8 67966.8 1.24349E+8 67966.8 0.00002476 1.35335E-8 0.0000245441 1.34743E-8 29.2449 0.0330631
12864 1.24329E+8 67939.2 1.24329E+8 67939.2 0.0000249015 1.36075E-8 0.0000246845 1.35481E-8 29.239 0.033059
12865 1.24212E+8 67884.7 1.24212E+8 67884.7 0.0000250244 1.36765E-8 0.0000248084 1.36173E-8 29.2332 0.0330612
12866 1.24204E+8 67858.9 1.24204E+8 67858.9 0.0000251697 1.37516E-8 0.0000249513 1.36918E-8 29.2273 0.0330561
12867 1.24021E+8 67789.1 1.24021E+8 67789.1 0.0000252805 1.38183E-8 0.0000250591 1.37577E-8 29.2214 0.0330635
12868 1.23987E+8 67757 1.23987E+8 67757 0.0000254221 1.38929E-8 0.0000251985 1.38316E-8 29.2156 0.0330602
12869 1.23934E+8 67719.8 1.23934E+8 67719.8 0.0000255607 1.39669E-8 0.0000253377 1.39058E-8 29.2097 0.0330581
12870 1.23868E+8 67679.5 1.23868E+8 67679.5 0.0000256973 1.40406E-8 0.0000254746 1.39797E-8 29.2039 0.0330571
12871 1.23707E+8 67611.5 1.23707E+8 67611.5 0.0000258147 1.4109E-8 0.0000255923 1.40481E-8 29.198 0.033062
12872 1.23712E+8 67593.7 1.23712E+8 67593.7 0.0000259674 1.41882E-8 0.0000257396 1.41258E-8 29.1921 0.033057
12873 1.23637E+8 67551.7 1.23637E+8 67551.7 0.0000261042 1.42627E-8 0.000025879 1.4201E-8 29.1863 0.0330567
12874 1.23559E+8 67505.9 1.23559E+8 67505.9 0.0000262412 1.43368E-8 0.0000260143 1.42747E-8 29.1804 0.0330559
12875 1.23488E+8 67466.1 1.23488E+8 67466.1 0.0000263804 1.44126E-8 0.0000261507 1.43497E-8 29.1745 0.0330556
12876 1.23377E+8 67413.4 1.23377E+8 67413.4 0.0000265116 1.4486E-8 0.0000262823 1.44233E-8 29.1687 0.0330576
12877 1.23192E+8 67342.1 1.23192E+8 67342.1 0.0000266274 1.45557E-8 0.000026399 1.44932E-8 29.1628 0.0330649
12878 1.23181E+8 67316 1.23181E+8 67316 0.0000267815 1.46356E-8 0.0000265526 1.45729E-8 29.157 0.03306
12879 1.23183E+8 67294.5 1.23183E+8 67294.5 0.0000269393 1.4717E-8 0.0000267048 1.46528E-8 29.1511 0.0330545
12880 1.22894E+8 67193.7 1.22894E+8 67193.7 0.0000270342 1.47813E-8 0.0000267979 1.47166E-8 29.1452 0.0330685
12881 1.22971E+8 67191.3 1.22971E+8 67191.3 0.0000272101 1.48677E-8 0.0000269749 1.48033E-8 29.1394 0.0330576
12882 1.22847E+8 67135.2 1.22847E+8 67135.2 0.0000273427 1.49427E-8 0.0000271071 1.48782E-8 29.1335 0.0330604
12883 1.22743E+8 67085.9 1.22743E+8 67085.9 0.0000274799 1.50194E-8 0.0000272452 1.49551E-8 29.1277 0.0330623
12884 1.22593E+8 67021.4 1.22593E+8 67021.4 0.0000276077 1.50931E-8 0.0000273695 1.50279E-8 29.1218 0.0330666
12885 1.22595E+8 67000.5 1.22595E+8 67000.5 0.0000277705 1.51772E-8 0.000027531 1.51117E-8 29.1159 0.0330612
12886 1.22486E+8 66948.5 1.22486E+8 66948.5 0.0000279089 1.52545E-8 0.0000276697 1.5189E-8 29.1101 0.033063
12887 1.22404E+8 66904 1.22404E+8 66904 0.0000280541 1.53339E-8 0.0000278124 1.52678E-8 29.1042 0.0330631
12888 1.22332E+8 66863.4 1.22332E+8 66863.4 0.0000282025 1.54148E-8 0.0000279593 1.53482E-8 29.0984 0.0330628
12889 1.22273E+8 66826 1.22273E+8 66826 0.0000283545 1.54967E-8 0.0000281102 1.54298E-8 29.0925 0.0330615
12890 1.22222E+8 66787.6 1.22222E+8 66787.6 0.0000285094 1.55789E-8 0.0000282701 1.55134E-8 29.0866 0.0330589
12891 1.22009E+8 66709.4 1.22009E+8 66709.4 0.0000286269 1.56521E-8 0.0000283805 1.55847E-8 29.0808 0.0330684
12892 1.21905E+8 66656.3 1.21905E+8 66656.3 0.0000287707 1.57315E-8 0.0000285266 1.56647E-8 29.0749 0.0330693
12893 1.21944E+8 66646.7 1.21944E+8 66646.7 0.000028949 1.58218E-8 0.0000287 1.57536E-8 29.069 0.0330617
12894 1.21979E+8 66635.8 1.21979E+8 66635.8 0.0000291277 1.59122E-8 0.0000288765 1.58434E-8 29.0632 0.0330542
12895 1.21809E+8 66565.4 1.21809E+8 66565.4 0.000029258 1.59887E-8 0.0000290056 1.59197E-8 29.0573 0.0330598
12896 1.21769E+8 66531 1.21769E+8 66531 0.0000294204 1.60745E-8 0.0000291663 1.60049E-8 29.0515 0.0330567
12897 1.21727E+8 66498.4 1.21727E+8 66498.4 0.000029583 1.6161E-8 0.0000293289 1.60914E-8 29.0456 0.0330543
12898 1.21563E+8 66432 1.21563E+8 66432 0.0000297169 1.62398E-8 0.0000294649 1.61709E-8 29.0397 0.03306
12899 1.21439E+8 66378.5 1.21439E+8 66378.5 0.0000298611 1.63221E-8 0.0000296079 1.62528E-8 29.0339 0.0330636
12900 1.21509E+8 66374.2 1.21509E+8 66374.2 0.0000300539 1.6417E-8 0.0000297985 1.63471E-8 29.028 0.033053
12901 1.2137E+8 66316.4 1.2137E+8 66316.4 0.0000301962 1.64992E-8 0.0000299385 1.64287E-8 29.0221 0.0330575
12902 1.21213E+8 66249 1.21213E+8 66249 0.0000303343 1.65793E-8 0.0000300747 1.65082E-8 29.0163 0.0330621
12903 1.21174E+8 66215.9 1.21174E+8 66215.9 0.0000305029 1.66685E-8 0.0000302431 1.65973E-8 29.0104 0.0330591
12904 1.20983E+8 66141.6 1.20983E+8 66141.6 0.0000306335 1.67475E-8 0.0000303714 1.66757E-8 29.0046 0.0330667
12905 1.21132E+8 66164.5 1.21132E+8 66164.5 0.0000308517 1.68518E-8 0.0000305892 1.678E-8 28.9987 0.0330521
12906 1.2086E+8 66065.7 1.2086E+8 66065.7 0.0000309634 1.69257E-8 0.0000307027 1.68543E-8 28.9928 0.0330646
12907 1.20816E+8 66032.4 1.20816E+8 66032.4 0.000031134 1.70165E-8 0.0000308693 1.6944E-8 28.987 0.0330622
12908 1.20708E+8 65981.1 1.20708E+8 65981.1 0.0000312891 1.71032E-8 0.0000310242 1.70307E-8 28.9811 0.0330642
12909 1.20664E+8 65947.5 1.20664E+8 65947.5 0.0000314615 1.71951E-8 0.0000311952 1.71221E-8 28.9753 0.0330618
12910 1.20562E+8 65895 1.20562E+8 65895 0.0000316196 1.72823E-8 0.0000313516 1.72089E-8 28.9694 0.0330626
12911 1.20544E+8 65870.1 1.20544E+8 65870.1 0.0000318008 1.73774E-8 0.0000315339 1.73043E-8 28.9635 0.0330588
12912 1.20486E+8 65832.8 1.20486E+8 65832.8 0.0000319724 1.74696E-8 0.0000317024 1.73957E-8 28.9577 0.0330574
12913 1.20311E+8 65762.2 1.20311E+8 65762.2 0.0000321136 1.75535E-8 0.0000318415 1.74789E-8 28.9518 0.0330637
12914 1.20242E+8 65723.6 1.20242E+8 65723.6 0.0000322841 1.76463E-8 0.000032011 1.75715E-8 28.946 0.0330634
12915 1.20184E+8 65683.9 1.20184E+8 65683.9 0.0000324581 1.77393E-8 0.000032184 1.76643E-8 28.9401 0.0330614
12916 1.20104E+8 65640 1.20104E+8 65640 0.000032627 1.78316E-8 0.0000323526 1.77565E-8 28.9342 0.0330614
12917 1.20058E+8 65603.9 1.20058E+8 65603.9 0.0000328063 1.79266E-8 0.0000325305 1.78512E-8 28.9284 0.0330587
12918 1.19919E+8 65547.4 1.19919E+8 65547.4 0.000032961 1.80164E-8 0.0000326841 1.79406E-8 28.9225 0.0330635
12919 1.19934E+8 65528.7 1.19934E+8 65528.7 0.0000331589 1.81172E-8 0.0000328814 1.80413E-8 28.9167 0.0330568
12920 1.19809E+8 65473.4 1.19809E+8 65473.4 0.0000333189 1.82083E-8 0.0000330383 1.81314E-8 28.9108 0.0330601
12921 1.1973E+8 65430 1.1973E+8 65430 0.0000334927 1.83032E-8 0.0000332095 1.82257E-8 28.9049 0.03306
12922 1.19615E+8 65377 1.19615E+8 65377 0.0000336573 1.83959E-8 0.0000333738 1.83183E-8 28.8991 0.0330625
12923 1.19486E+8 65319.1 1.19486E+8 65319.1 0.0000338185 1.84876E-8 0.000033536 1.84103E-8 28.8932 0.0330657
12924 1.19517E+8 65305.4 1.19517E+8 65305.4 0.0000340263 1.85925E-8 0.0000337406 1.85143E-8 28.8873 0.0330579
12925 1.19405E+8 65252.4 1.19405E+8 65252.4 0.0000341942 1.86866E-8 0.0000339088 1.86085E-8 28.8815 0.03306
12926 1.19396E+8 65231.1 1.19396E+8 65231.1 0.0000343926 1.87903E-8 0.0000341067 1.8712E-8 28.8756 0.0330559
12927 1.19347E+8 65196.8 1.19347E+8 65196.8 0.0000345807 1.88908E-8 0.0000342919 1.88118E-8 28.8698 0.0330539
12928 1.19048E+8 65091.7 1.19048E+8 65091.7 0.0000346966 1.89712E-8 0.0000344083 1.88922E-8 28.8639 0.0330688
12929 1.19157E+8 65098.9 1.19157E+8 65098.9 0.0000349327 1.90848E-8 0.0000346371 1.90039E-8 28.858 0.0330554
12930 1.19E+8 65038.4 1.19E+8 65038.4 0.0000350917 1.91792E-8 0.0000347979 1.90987E-8 28.8522 0.0330618
12931 1.1902E+8 65018 1.1902E+8 65018 0.0000353038 1.92858E-8 0.0000350101 1.92054E-8 28.8463 0.0330539
12932 1.18818E+8 64942.9 1.18818E+8 64942.9 0.0000354513 1.93768E-8 0.0000351554 1.92958E-8 28.8405 0.0330628
12933 1.18802E+8 64914.7 1.18802E+8 64914.7 0.0000356547 1.94822E-8 0.0000353543 1.94E-8 28.8346 0.0330579
12934 1.18714E+8 64869.8 1.18714E+8 64869.8 0.0000358379 1.95833E-8 0.0000355424 1.95024E-8 28.8287 0.0330588
12935 1.18526E+8 64796.7 1.18526E+8 64796.7 0.0000359915 1.96762E-8 0.0000356923 1.95943E-8 28.8229 0.0330663
12936 1.18526E+8 64777.4 1.18526E+8 64777.4 0.0000362031 1.97859E-8 0.0000359006 1.97031E-8 28.817 0.0330613
12937 1.18419E+8 64725.1 1.18419E+8 64725.1 0.0000363831 1.98862E-8 0.0000360802 1.98033E-8 28.8111 0.0330629
12938 1.18374E+8 64689.4 1.18374E+8 64689.4 0.0000365829 1.9992E-8 0.0000362767 1.99082E-8 28.8053 0.0330601
12939 1.18273E+8 64642.4 1.18273E+8 64642.4 0.0000367666 2.0095E-8 0.0000364589 2.00107E-8 28.7994 0.0330622
12940 1.18143E+8 64584.7 1.18143E+8 64584.7 0.0000369421 2.0195E-8 0.0000366341 2.01107E-8 28.7936 0.0330656
12941 1.18144E+8 64564.5 1.18144E+8 64564.5 0.0000371596 2.03075E-8 0.0000368488 2.02224E-8 28.7877 0.0330603
12942 1.18079E+8 64524.9 1.18079E+8 64524.9 0.0000373575 2.04142E-8 0.0000370509 2.03303E-8 28.7818 0.0330592
12943 1.17966E+8 64470.8 1.17966E+8 64470.8 0.000037541 2.0517E-8 0.0000372297 2.04318E-8 28.776 0.0330612
12944 1.17941E+8 64444.2 1.17941E+8 64444.2 0.0000377538 2.06292E-8 0.0000374391 2.0543E-8 28.7701 0.0330579
12945 1.17849E+8 64395.2 1.17849E+8 64395.2 0.0000379461 2.07347E-8 0.0000376304 2.06483E-8 28.7643 0.0330582
12946 1.17686E+8 64330.4 1.17686E+8 64330.4 0.0000381163 2.08355E-8 0.0000378007 2.07491E-8 28.7584 0.0330644
12947 1.17725E+8 64319.6 1.17725E+8 64319.6 0.000038353 2.09545E-8 0.0000380323 2.08668E-8 28.7525 0.0330563
12948 1.17571E+8 64256.2 1.17571E+8 64256.2 0.000038528 2.10569E-8 0.0000382118 2.09703E-8 28.7467 0.0330616
12949 1.17467E+8 64204.8 1.17467E+8 64204.8 0.0000387205 2.11638E-8 0.000038403 2.10769E-8 28.7408 0.0330629
12950 1.17384E+8 64160 1.17384E+8 64160 0.0000389203 2.12733E-8 0.0000385936 2.11839E-8 28.735 0.0330631
12951 1.17343E+8 64129.5 1.17343E+8 64129.5 0.0000391354 2.13882E-8 0.0000388153 2.13005E-8 28.7291 0.033061
12952 1.17262E+8 64087.8 1.17262E+8 64087.8 0.0000393384 2.14999E-8 0.0000390136 2.1411E-8 28.7232 0.0330617
12953 1.17265E+8 64064.1 1.17265E+8 64064.1 0.0000395704 2.16183E-8 0.0000392461 2.15295E-8 28.7174 0.0330552
12954 1.1702E+8 63975.6 1.1702E+8 63975.6 0.0000397202 2.17154E-8 0.0000393922 2.16256E-8 28.7115 0.0330668
12955 1.17065E+8 63967.5 1.17065E+8 63967.5 0.0000399693 2.18403E-8 0.0000396384 2.17498E-8 28.7056 0.0330583
12956 1.17001E+8 63926.6 1.17001E+8 63926.6 0.0000401821 2.19546E-8 0.0000398489 2.18634E-8 28.6998 0.0330568
12957 1.16848E+8 63863.5 1.16848E+8 63863.5 0.0000403653 2.20618E-8 0.000040026 2.19689E-8 28.6939 0.0330621
12958 1.16749E+8 63816.7 1.16749E+8 63816.7 0.0000405684 2.21753E-8 0.0000402339 2.20837E-8 28.6881 0.033064
12959 1.16669E+8 63772.1 1.16669E+8 63772.1 0.0000407785 2.229E-8 0.0000404445 2.21986E-8 28.6822 0.0330639
12960 1.16643E+8 63743.8 1.16643E+8 63743.8 0.0000410092 2.24111E-8 0.0000406685 2.23179E-8 28.6763 0.0330602
12961 1.16607E+8 63712.9 1.16607E+8 63712.9 0.0000412376 2.25319E-8 0.0000408927 2.24375E-8 28.6705 0.0330573
12962 1.16458E+8 63651.4 1.16458E+8 63651.4 0.0000414271 2.26425E-8 0.0000410879 2.25496E-8 28.6646 0.0330624
12963 1.16305E+8 63586.4 1.16305E+8 63586.4 0.0000416158 2.27524E-8 0.0000412692 2.26574E-8 28.6588 0.0330673
12964 1.16351E+8 63580.4 1.16351E+8 63580.4 0.0000418769 2.2884E-8 0.000041533 2.27898E-8 28.6529 0.0330592
12965 1.16244E+8 63528.9 1.16244E+8 63528.9 0.0000420844 2.29998E-8 0.0000417377 2.29048E-8 28.647 0.033061
12966 1.16226E+8 63501.1 1.16226E+8 63501.1 0.0000423252 2.31249E-8 0.0000419777 2.30298E-8 28.6412 0.0330564
12967 1.1609E+8 63444.6 1.1609E+8 63444.6 0.0000425243 2.32401E-8 0.0000421778 2.31452E-8 28.6353 0.0330609
12968 1.16061E+8 63415 1.16061E+8 63415 0.0000427635 2.33659E-8 0.0000424128 2.32699E-8 28.6295 0.0330574
12969 1.16018E+8 63381.9 1.16018E+8 63381.9 0.0000429992 2.3491E-8 0.0000426462 2.33944E-8 28.6236 0.0330548
12970 1.15876E+8 63319.5 1.15876E+8 63319.5 0.0000431988 2.36058E-8 0.0000428468 2.35094E-8 28.6177 0.0330588
12971 1.1573E+8 63262.6 1.1573E+8 63262.6 0.000043398 2.37232E-8 0.0000430442 2.36263E-8 28.6119 0.0330648
12972 1.15694E+8 63229.6 1.15694E+8 63229.6 0.0000436397 2.38502E-8 0.0000432826 2.37524E-8 28.606 0.0330613
12973 1.15643E+8 63193.6 1.15643E+8 63193.6 0.0000438767 2.39767E-8 0.0000435224 2.38797E-8 28.6001 0.0330592
12974 1.15514E+8 63137.1 1.15514E+8 63137.1 0.0000440855 2.40961E-8 0.0000437284 2.39984E-8 28.5943 0.0330629
12975 1.15434E+8 63094 1.15434E+8 63094 0.0000443135 2.42211E-8 0.0000439517 2.4122E-8 28.5884 0.0330631
12976 1.15401E+8 63062.1 1.15401E+8 63062.1 0.0000445619 2.43514E-8 0.0000441968 2.42515E-8 28.5826 0.0330594
12977 1.15288E+8 63011.5 1.15288E+8 63011.5 0.0000447798 2.44748E-8 0.0000444185 2.43759E-8 28.5767 0.0330623
12978 1.15288E+8 62988.9 1.15288E+8 62988.9 0.0000450432 2.46099E-8 0.0000446778 2.45099E-8 28.5708 0.0330564
12979 1.15239E+8 62955.3 1.15239E+8 62955.3 0.0000452883 2.47413E-8 0.0000449207 2.46407E-8 28.565 0.0330546
12980 1.1507E+8 62888 1.1507E+8 62888 0.0000454877 2.48601E-8 0.0000451176 2.47587E-8 28.5591 0.0330612
12981 1.1502E+8 62851.5 1.1502E+8 62851.5 0.0000457355 2.49918E-8 0.0000453629 2.48898E-8 28.5533 0.0330587
12982 1.14884E+8 62794.6 1.14884E+8 62794.6 0.00004595 2.51159E-8 0.0000455749 2.50132E-8 28.5474 0.0330633
12983 1.14852E+8 62765 1.14852E+8 62765 0.0000462069 2.52516E-8 0.0000458304 2.51486E-8 28.5415 0.0330602
12984 1.14678E+8 62694.4 1.14678E+8 62694.4 0.0000464082 2.53715E-8 0.0000460279 2.52673E-8 28.5357 0.0330666
12985 1.14728E+8 62689.1 1.14728E+8 62689.1 0.0000467014 2.55185E-8 0.0000463221 2.54146E-8 28.5298 0.033058
12986 1.14578E+8 62623.5 1.14578E+8 62623.5 0.0000469144 2.56417E-8 0.0000465367 2.55382E-8 28.5239 0.0330624
12987 1.14563E+8 62600 1.14563E+8 62600 0.0000471843 2.57828E-8 0.0000468034 2.56785E-8 28.5181 0.0330583
12988 1.14412E+8 62536.7 1.14412E+8 62536.7 0.0000473989 2.5908E-8 0.0000470152 2.58029E-8 28.5122 0.0330634
12989 1.14344E+8 62497.8 1.14344E+8 62497.8 0.0000476493 2.60442E-8 0.0000472633 2.59384E-8 28.5064 0.0330629
12990 1.14285E+8 62461.1 1.14285E+8 62461.1 0.0000479048 2.61819E-8 0.0000475197 2.60765E-8 28.5005 0.0330617
12991 1.14235E+8 62425.1 1.14235E+8 62425.1 0.0000481652 2.63206E-8 0.0000477788 2.62149E-8 28.4946 0.0330595
12992 1.14137E+8 62377.8 1.14137E+8 62377.8 0.0000484067 2.64553E-8 0.0000480146 2.63479E-8 28.4888 0.0330612
12993 1.14081E+8 62339.5 1.14081E+8 62339.5 0.0000486671 2.65943E-8 0.0000482714 2.64861E-8 28.4829 0.0330591
12994 1.14043E+8 62309.5 1.14043E+8 62309.5 0.0000489371 2.67379E-8 0.0000485463 2.6631E-8 28.4771 0.0330567
12995 1.13922E+8 62253.3 1.13922E+8 62253.3 0.0000491729 2.68709E-8 0.000048778 2.67627E-8 28.4712 0.0330592
12996 1.13835E+8 62208.9 1.13835E+8 62208.9 0.0000494242 2.70096E-8 0.0000490249 2.69003E-8 28.4653 0.0330601
12997 1.13881E+8 62201.4 1.13881E+8 62201.4 0.0000497346 2.71651E-8 0.0000493347 2.70557E-8 28.4595 0.0330515
12998 1.13758E+8 62145 1.13758E+8 62145 0.0000499732 2.72999E-8 0.0000495684 2.71891E-8 28.4536 0.0330542
12999 1.1357E+8 62073.9 1.1357E+8 62073.9 0.0000501834 2.7429E-8 0.0000497808 2.73188E-8 28.4478 0.0330628
13000 1.13462E+8 62021.2 1.13462E+8 62021.2 0.0000504307 2.75668E-8 0.0000500223 2.7455E-8 28.4419 0.0330644
13001 1.13464E+8 62002.7 1.13464E+8 62002.7 0.0000507281 2.77207E-8 0.0000503172 2.76081E-8 28.436 0.0330592
13002 1.13381E+8 61958.4 1.13381E+8 61958.4 0.0000509889 2.78635E-8 0.0000505793 2.77514E-8 28.4302 0.0330594
13003 1.1327E+8 61904.1 1.1327E+8 61904.1 0.0000512385 2.8003E-8 0.0000508289 2.78909E-8 28.4243 0.0330612
13004 1.13282E+8 61887.1 1.13282E+8 61887.1 0.000051545 2.81597E-8 0.0000511308 2.80464E-8 28.4184 0.0330549
13005 1.13171E+8 61836.5 1.13171E+8 61836.5 0.0000517973 2.8302E-8 0.0000513829 2.81885E-8 28.4126 0.0330575
13006 1.13006E+8 61771.1 1.13006E+8 61771.1 0.0000520256 2.84384E-8 0.0000516094 2.83244E-8 28.4067 0.0330642
13007 1.1293E+8 61729 1.1293E+8 61729 0.0000522963 2.8586E-8 0.0000518787 2.84717E-8 28.4009 0.0330641
13008 1.12785E+8 61668.2 1.12785E+8 61668.2 0.0000525364 2.87257E-8 0.0000521204 2.86118E-8 28.395 0.0330689
13009 1.12851E+8 61662.4 1.12851E+8 61662.4 0.0000528758 2.88919E-8 0.0000524551 2.87767E-8 28.3891 0.0330578
13010 1.12726E+8 61609.2 1.12726E+8 61609.2 0.000053128 2.90366E-8 0.0000527037 2.89204E-8 28.3833 0.0330617
13011 1.12617E+8 61558 1.12617E+8 61558 0.0000533882 2.9183E-8 0.0000529624 2.90665E-8 28.3774 0.0330641
13012 1.12659E+8 61549.1 1.12659E+8 61549.1 0.0000537225 2.93504E-8 0.0000532933 2.9233E-8 28.3716 0.0330555
13013 1.12596E+8 61510 1.12596E+8 61510 0.000054008 2.95043E-8 0.0000535796 2.93871E-8 28.3657 0.0330543
13014 1.12402E+8 61437.6 1.12402E+8 61437.6 0.0000542322 2.96428E-8 0.0000538009 2.95247E-8 28.3598 0.0330633
13015 1.12343E+8 61399.3 1.12343E+8 61399.3 0.0000545222 2.97984E-8 0.0000540859 2.9679E-8 28.354 0.0330616
13016 1.12253E+8 61356.3 1.12253E+8 61356.3 0.0000547988 2.99525E-8 0.0000543616 2.98329E-8 28.3481 0.0330632
13017 1.12185E+8 61315.1 1.12185E+8 61315.1 0.0000550876 3.01084E-8 0.0000546516 2.99889E-8 28.3422 0.0330622
13018 1.12136E+8 61279.5 1.12136E+8 61279.5 0.0000553873 3.02678E-8 0.0000549455 3.01469E-8 28.3364 0.0330598
13019 1.12107E+8 61250.2 1.12107E+8 61250.2 0.0000556981 3.04312E-8 0.0000552575 3.03106E-8 28.3305 0.0330563
13020 1.11943E+8 61186 1.11943E+8 61186 0.0000559438 3.0578E-8 0.000055507 3.04585E-8 28.3247 0.0330631
13021 1.11907E+8 61154.5 1.11907E+8 61154.5 0.0000562547 3.07419E-8 0.0000558046 3.06188E-8 28.3188 0.0330598
13022 1.11808E+8 61103.9 1.11808E+8 61103.9 0.0000565353 3.08971E-8 0.0000560851 3.07739E-8 28.3129 0.0330608
13023 1.11766E+8 61073.5 1.11766E+8 61073.5 0.0000568462 3.10631E-8 0.0000563936 3.09392E-8 28.3071 0.0330588
13024 1.1162E+8 61012.6 1.1162E+8 61012.6 0.0000571053 3.12147E-8 0.0000566549 3.10913E-8 28.3012 0.033064
13025 1.11643E+8 61000.4 1.11643E+8 61000.4 0.000057453 3.13919E-8 0.0000569949 3.12665E-8 28.2954 0.0330573
13026 1.11495E+8 60935.2 1.11495E+8 60935.2 0.0000577143 3.15426E-8 0.0000572541 3.14167E-8 28.2895 0.0330614
13027 1.11461E+8 60905.9 1.11461E+8 60905.9 0.0000580357 3.17127E-8 0.0000575746 3.15866E-8 28.2836 0.0330585
13028 1.11383E+8 60864.6 1.11383E+8 60864.6 0.0000583358 3.18776E-8 0.0000578766 3.17518E-8 28.2778 0.033059
13029 1.11317E+8 60824.6 1.11317E+8 60824.6 0.0000586442 3.20438E-8 0.0000581817 3.19173E-8 28.2719 0.0330578
13030 1.11326E+8 60807.7 1.11326E+8 60807.7 0.0000589937 3.22233E-8 0.0000585252 3.20952E-8 28.2661 0.0330519
13031 1.11112E+8 60725.4 1.11112E+8 60725.4 0.0000592264 3.23688E-8 0.0000587651 3.22426E-8 28.2602 0.0330613
13032 1.10953E+8 60663.3 1.10953E+8 60663.3 0.0000594892 3.25259E-8 0.0000590199 3.23974E-8 28.2543 0.0330682
13033 1.10951E+8 60641.7 1.10951E+8 60641.7 0.000059838 3.27054E-8 0.0000593639 3.25756E-8 28.2485 0.0330625
13034 1.10845E+8 60590.7 1.10845E+8 60590.7 0.0000601323 3.287E-8 0.000059662 3.27412E-8 28.2426 0.0330644
13035 1.10784E+8 60553.1 1.10784E+8 60553.1 0.0000604524 3.30426E-8 0.0000599737 3.29116E-8 28.2367 0.0330632
13036 1.10833E+8 60545.7 1.10833E+8 60545.7 0.0000608345 3.32328E-8 0.000060356 3.31019E-8 28.2309 0.033054
13037 1.10658E+8 60478.2 1.10658E+8 60478.2 0.0000610955 3.33909E-8 0.0000606148 3.32594E-8 28.225 0.0330616
13038 1.10638E+8 60452.2 1.10638E+8 60452.2 0.0000614438 3.35729E-8 0.0000609617 3.3441E-8 28.2192 0.0330575
13039 1.10589E+8 60418.4 1.10589E+8 60418.4 0.0000617776 3.37513E-8 0.0000612913 3.36183E-8 28.2133 0.0330556
13040 1.10451E+8 60359 1.10451E+8 60359 0.0000620629 3.39162E-8 0.0000615779 3.37835E-8 28.2074 0.03306
13041 1.10358E+8 60315.1 1.10358E+8 60315.1 0.0000623755 3.40909E-8 0.0000618823 3.39558E-8 28.2016 0.0330618
13042 1.10277E+8 60270.3 1.10277E+8 60270.3 0.0000626959 3.42658E-8 0.0000622054 3.41314E-8 28.1957 0.0330617
13043 1.10154E+8 60218.1 1.10154E+8 60218.1 0.0000629943 3.44373E-8 0.0000624993 3.43017E-8 28.1899 0.0330658
13044 1.1008E+8 60178.9 1.1008E+8 60178.9 0.0000633216 3.46172E-8 0.0000628306 3.44827E-8 28.184 0.0330662
13045 1.09883E+8 60108.1 1.09883E+8 60108.1 0.0000635805 3.47798E-8 0.0000630828 3.46434E-8 28.1781 0.0330762
13046 1.09746E+8 60061 1.09746E+8 60061 0.0000638739 3.49566E-8 0.0000633753 3.482E-8 28.1723 0.033084
13047 1.09519E+8 59993.4 1.09519E+8 59993.4 0.0000641164 3.51226E-8 0.0000636114 3.4984E-8 28.1664 0.0330996
13048 1.09009E+8 59859.6 1.09009E+8 59859.6 0.0000641928 3.52503E-8 0.0000636898 3.51119E-8 28.1606 0.03314
13049 1.08254E+8 59674.4 1.08254E+8 59674.4 0.0000641228 3.53476E-8 0.0000636221 3.52093E-8 28.1547 0.0332038
13050 1.07323E+8 59473.9 1.07323E+8 59473.9 0.0000639448 3.54359E-8 0.0000634452 3.52971E-8 28.1488 0.0332915
13051 1.05771E+8 59141.7 1.05771E+8 59141.7 0.0000633902 3.54449E-8 0.0000628976 3.53067E-8 28.143 0.033441
13052 1.03615E+8 58724.2 1.03615E+8 58724.2 0.0000624618 3.54012E-8 0.0000619803 3.52644E-8 28.1371 0.0336678
13053 1.00451E+8 58153.9 1.00451E+8 58153.9 0.0000609096 3.52633E-8 0.0000604385 3.51261E-8 28.1313 0.0340276
13054 9.5872E+7 57388.8 9.5872E+7 57388.8 0.0000584728 3.50034E-8 0.0000580193 3.48664E-8 28.1255 0.0346009
13055 8.93794E+7 56360.7 8.93794E+7 56360.7 0.0000548305 3.45777E-8 0.0000544059 3.44421E-8 28.1197 0.0355135
13056 8.07325E+7 55039.4 8.07325E+7 55039.4 0.0000498139 3.39649E-8 0.0000494354 3.38337E-8 28.1139 0.0369268
13057 6.99434E+7 53352.1 6.99434E+7 53352.1 0.0000434065 3.31161E-8 0.0000430796 3.29888E-8 28.1081 0.0390605
13058 5.77018E+7 51261 5.77018E+7 51261 0.0000360164 3.2004E-8 0.0000357431 3.18795E-8 28.1023 0.0421542
13059 4.52826E+7 48803.4 4.52826E+7 48803.4 0.0000284279 3.06475E-8 0.0000282142 3.05298E-8 28.0966 0.0464309
13060 3.3651E+7 45905.3 3.3651E+7 45905.3 0.0000212483 2.89963E-8 0.0000210832 2.88816E-8 28.0908 0.052238
13061 2.42365E+7 43343.1 2.42365E+7 43343.1 0.0000153929 2.75401E-8 0.000015271 2.74294E-8 28.085 0.0598121
13062 1.70653E+7 41809.1 1.70653E+7 41809.1 0.0000109017 2.6725E-8 0.0000108179 2.66214E-8 28.0791 0.0700099
13063 1.21297E+7 42222.8 1.21297E+7 42222.8 0.0000077949 2.71539E-8 0.00000773173 2.70422E-8 28.0732 0.0834534
13064 9.31763E+6 43905.4 9.31763E+6 43905.4 0.00000602449 2.84024E-8 0.00000597492 2.82853E-8 28.0671 0.0970896
13065 9.16909E+6 44171 9.16909E+6 44171 0.00000596717 2.87341E-8 0.00000591798 2.86161E-8 28.0606 0.0981457
13066 1.15301E+7 42213 1.15301E+7 42213 0.00000755039 2.76215E-8 0.00000748736 2.7504E-8 28.0544 0.0855533
13067 1.62324E+7 41689.4 1.62324E+7 41689.4 0.0000106925 2.74432E-8 0.0000106118 2.73389E-8 28.0485 0.0716579
13068 2.29676E+7 42832.3 2.29676E+7 42832.3 0.0000152181 2.8366E-8 0.0000150998 2.8254E-8 28.0426 0.0610645
13069 3.20435E+7 45278.4 3.20435E+7 45278.4 0.0000213554 3.0164E-8 0.0000211886 3.00445E-8 28.0368 0.0531555
13070 4.29897E+7 47937.3 4.29897E+7 47937.3 0.0000288167 3.21225E-8 0.000028601 3.19998E-8 28.031 0.0472208
13071 5.53592E+7 50483.9 5.53592E+7 50483.9 0.0000373226 3.40264E-8 0.000037044 3.38966E-8 28.0253 0.0427039
13072 6.7482E+7 52542.5 6.7482E+7 52542.5 0.0000457583 3.56206E-8 0.0000454131 3.54834E-8 28.0195 0.0394597
13073 7.81658E+7 54149.9 7.81658E+7 54149.9 0.0000533093 3.69249E-8 0.0000529007 3.67809E-8 28.0137 0.0372211
13074 8.68894E+7 55426.5 8.68894E+7 55426.5 0.0000596025 3.80166E-8 0.0000591467 3.78694E-8 28.008 0.0357174
13075 9.34262E+7 56385.7 9.34262E+7 56385.7 0.0000644594 3.8901E-8 0.0000639621 3.87494E-8 28.0022 0.0347423
13076 9.8183E+7 57130.6 9.8183E+7 57130.6 0.0000681364 3.96458E-8 0.0000676199 3.94946E-8 27.9963 0.0341136
13077 1.01317E+8 57626.3 1.01317E+8 57626.3 0.0000707226 4.02243E-8 0.0000701809 4.00696E-8 27.9905 0.0337274
13078 1.03508E+8 57996.3 1.03508E+8 57996.3 0.0000726749 4.072E-8 0.0000721219 4.05646E-8 27.9847 0.0334756
13079 1.04953E+8 58243.5 1.04953E+8 58243.5 0.000074122 4.11337E-8 0.0000735556 4.09762E-8 27.9788 0.0333151
13080 1.05799E+8 58376.2 1.05799E+8 58376.2 0.0000751584 4.14696E-8 0.0000745815 4.131E-8 27.973 0.0332193
13081 1.06465E+8 58489.8 1.06465E+8 58489.8 0.0000760751 4.17942E-8 0.0000754964 4.16349E-8 27.9671 0.0331476
13082 1.06691E+8 58501.8 1.06691E+8 58501.8 0.0000766846 4.20484E-8 0.0000761013 4.18881E-8 27.9613 0.0331158
13083 1.06822E+8 58498.5 1.06822E+8 58498.5 0.0000772297 4.22931E-8 0.0000766391 4.21311E-8 27.9554 0.0330946
13084 1.06965E+8 58507.8 1.06965E+8 58507.8 0.0000777873 4.25484E-8 0.0000771937 4.23857E-8 27.9495 0.0330751
13085 1.06974E+8 58482.8 1.06974E+8 58482.8 0.0000782517 4.27804E-8 0.0000776533 4.26167E-8 27.9437 0.0330666
13086 1.06956E+8 58455.3 1.06956E+8 58455.3 0.0000786983 4.30115E-8 0.0000780971 4.28469E-8 27.9378 0.0330616
13087 1.06871E+8 58408.3 1.06871E+8 58408.3 0.0000790976 4.32294E-8 0.0000784927 4.30638E-8 27.932 0.0330615
13088 1.06842E+8 58379.9 1.06842E+8 58379.9 0.0000795411 4.34624E-8 0.0000789389 4.32975E-8 27.9261 0.0330579
13089 1.06702E+8 58320.4 1.06702E+8 58320.4 0.0000799037 4.36732E-8 0.0000792954 4.35067E-8 27.9202 0.0330627
13090 1.06675E+8 58294.1 1.06675E+8 58294.1 0.0000803531 4.39102E-8 0.0000797431 4.37433E-8 27.9144 0.0330595
13091 1.06567E+8 58245 1.06567E+8 58245 0.0000807433 4.41313E-8 0.0000801232 4.39614E-8 27.9085 0.0330624
13092 1.06492E+8 58205.3 1.06492E+8 58205.3 0.0000811611 4.43604E-8 0.0000805447 4.41915E-8 27.9027 0.0330627
13093 1.06474E+8 58183 1.06474E+8 58183 0.0000816242 4.46042E-8 0.0000810052 4.44347E-8 27.8968 0.0330592
13094 1.06363E+8 58132.2 1.06363E+8 58132.2 0.0000820192 4.48272E-8 0.0000813999 4.46576E-8 27.8909 0.0330619
13095 1.06268E+8 58089.1 1.06268E+8 58089.1 0.0000824274 4.50572E-8 0.0000818002 4.48854E-8 27.8851 0.0330644
13096 1.06261E+8 58067.9 1.06261E+8 58067.9 0.0000829067 4.53056E-8 0.0000822763 4.51331E-8 27.8792 0.0330595
13097 1.06133E+8 58013.6 1.06133E+8 58013.6 0.0000832933 4.55292E-8 0.0000826547 4.53543E-8 27.8733 0.033064
13098 1.06126E+8 57993.8 1.06126E+8 57993.8 0.0000837776 4.57813E-8 0.0000831414 4.56072E-8 27.8675 0.0330594
13099 1.06026E+8 57947 1.06026E+8 57947 0.0000841904 4.60133E-8 0.0000835569 4.58399E-8 27.8616 0.0330617
13100 1.0593E+8 57900.5 1.0593E+8 57900.5 0.0000846089 4.62466E-8 0.0000839713 4.60722E-8 27.8558 0.0330633
13101 1.05887E+8 57870.3 1.05887E+8 57870.3 0.0000850712 4.64943E-8 0.0000844288 4.63184E-8 27.8499 0.0330615
13102 1.05835E+8 57836.7 1.05835E+8 57836.7 0.0000855297 4.67404E-8 0.0000848772 4.65618E-8 27.844 0.03306
13103 1.05798E+8 57809.4 1.05798E+8 57809.4 0.0000860018 4.69928E-8 0.0000853531 4.68153E-8 27.8382 0.033058
13104 1.05714E+8 57766.7 1.05714E+8 57766.7 0.0000864388 4.72341E-8 0.0000857865 4.70556E-8 27.8323 0.0330589
13105 1.05543E+8 57702.1 1.05543E+8 57702.1 0.0000868065 4.74589E-8 0.0000861519 4.72796E-8 27.8265 0.0330672
13106 1.05563E+8 57689.4 1.05563E+8 57689.4 0.000087333 4.77271E-8 0.0000866715 4.7546E-8 27.8206 0.0330604
13107 1.05563E+8 57670.1 1.05563E+8 57670.1 0.0000878465 4.79917E-8 0.0000871813 4.78097E-8 27.8147 0.0330548
13108 1.05346E+8 57591.8 1.05346E+8 57591.8 0.0000881812 4.82083E-8 0.0000875222 4.80278E-8 27.8089 0.0330664
13109 1.05326E+8 57568 1.05326E+8 57568 0.000088683 4.84716E-8 0.0000880166 4.82892E-8 27.803 0.0330627
13110 1.05228E+8 57520.3 1.05228E+8 57520.3 0.0000891211 4.87162E-8 0.0000884484 4.85322E-8 27.7972 0.0330644
13111 1.05198E+8 57494.6 1.05198E+8 57494.6 0.0000896196 4.89808E-8 0.000088943 4.87957E-8 27.7913 0.0330618
13112 1.0514E+8 57462.3 1.0514E+8 57462.3 0.0000900968 4.92411E-8 0.0000894155 4.90546E-8 27.7854 0.0330616
13113 1.05107E+8 57433.3 1.05107E+8 57433.3 0.000090598 4.95054E-8 0.0000899184 4.93193E-8 27.7796 0.0330584
13114 1.05061E+8 57402.8 1.05061E+8 57402.8 0.0000910908 4.97701E-8 0.0000904189 4.95862E-8 27.7737 0.0330568
13115 1.04953E+8 57354.3 1.04953E+8 57354.3 0.000091532 5.00201E-8 0.000090853 4.98343E-8 27.7678 0.0330598
13116 1.04868E+8 57312.2 1.04868E+8 57312.2 0.0000919955 5.02774E-8 0.0000913018 5.00875E-8 27.762 0.0330611
13117 1.04827E+8 57281 1.04827E+8 57281 0.0000925002 5.05454E-8 0.0000918164 5.03583E-8 27.7561 0.0330586
13118 1.04685E+8 57226 1.04685E+8 57226 0.0000929174 5.07936E-8 0.0000922261 5.06044E-8 27.7503 0.0330652
13119 1.04727E+8 57219.1 1.04727E+8 57219.1 0.0000935019 5.10862E-8 0.000092801 5.08946E-8 27.7444 0.0330564
13120 1.04581E+8 57158.7 1.04581E+8 57158.7 0.0000939197 5.13322E-8 0.0000932154 5.11394E-8 27.7385 0.0330622
13121 1.04541E+8 57130.4 1.04541E+8 57130.4 0.000094436 5.16084E-8 0.0000937243 5.14136E-8 27.7327 0.0330602
13122 1.04383E+8 57067.2 1.04383E+8 57067.2 0.0000948471 5.18541E-8 0.0000941405 5.16607E-8 27.7268 0.033067
13123 1.04489E+8 57078.4 1.04489E+8 57078.4 0.000095502 5.21692E-8 0.0000947965 5.19762E-8 27.721 0.0330534
13124 1.04323E+8 57012.9 1.04323E+8 57012.9 0.0000959103 5.24157E-8 0.0000952035 5.22222E-8 27.7151 0.0330608
13125 1.0431E+8 56992.6 1.0431E+8 56992.6 0.0000964623 5.27052E-8 0.0000957489 5.251E-8 27.7092 0.0330569
13126 1.04177E+8 56938.3 1.04177E+8 56938.3 0.0000969054 5.29644E-8 0.0000961864 5.27675E-8 27.7034 0.0330623
13127 1.04158E+8 56912.3 1.04158E+8 56912.3 0.0000974583 5.32516E-8 0.0000967285 5.30519E-8 27.6975 0.0330576
13128 1.04115E+8 56882.9 1.04115E+8 56882.9 0.0000979909 5.35372E-8 0.0000972682 5.33395E-8 27.6916 0.0330559
13129 1.03938E+8 56816.2 1.03938E+8 56816.2 0.0000983987 5.37884E-8 0.0000976733 5.35898E-8 27.6858 0.0330647
13130 1.03976E+8 56807.7 1.03976E+8 56807.7 0.0000990135 5.40968E-8 0.0000982757 5.3895E-8 27.6799 0.0330562
13131 1.03818E+8 56745 1.03818E+8 56745 0.0000994435 5.43544E-8 0.0000987098 5.41537E-8 27.6741 0.0330631
13132 1.03767E+8 56715.2 1.03767E+8 56715.2 0.0000999794 5.46453E-8 0.000099247 5.44448E-8 27.6682 0.0330625
13133 1.03707E+8 56678.7 1.03707E+8 56678.7 0.000100509 5.49312E-8 0.0000997696 5.47287E-8 27.6623 0.0330614
13134 1.03645E+8 56643.5 1.03645E+8 56643.5 0.00010104 5.52199E-8 0.000100288 5.50141E-8 27.6565 0.033061
13135 1.03615E+8 56618.5 1.03615E+8 56618.5 0.000101604 5.55198E-8 0.00010085 5.53135E-8 27.6506 0.0330585
13136 1.03592E+8 56593.5 1.03592E+8 56593.5 0.000102178 5.58216E-8 0.000101425 5.56155E-8 27.6448 0.0330549
13137 1.03471E+8 56541.6 1.03471E+8 56541.6 0.00010266 5.60983E-8 0.000101898 5.58898E-8 27.6389 0.033059
13138 1.03386E+8 56498.8 1.03386E+8 56498.8 0.000103178 5.63854E-8 0.000102414 5.61762E-8 27.633 0.0330601
13139 1.03378E+8 56479.3 1.03378E+8 56479.3 0.000103777 5.66972E-8 0.000103017 5.64895E-8 27.6272 0.0330557
13140 1.03318E+8 56442.7 1.03318E+8 56442.7 0.000104326 5.69933E-8 0.000103551 5.67815E-8 27.6213 0.0330545
13141 1.03149E+8 56378.7 1.03149E+8 56378.7 0.000104767 5.72635E-8 0.000103994 5.70517E-8 27.6155 0.0330629
13142 1.03101E+8 56346.4 1.03101E+8 56346.4 0.000105334 5.7567E-8 0.000104564 5.73563E-8 27.6096 0.0330611
13143 1.02988E+8 56298.8 1.02988E+8 56298.8 0.000105838 5.78568E-8 0.000105061 5.76441E-8 27.6037 0.0330652
13144 1.02957E+8 56269 1.02957E+8 56269 0.000106427 5.8166E-8 0.000105641 5.79506E-8 27.5979 0.0330615
13145 1.02957E+8 56252.3 1.02957E+8 56252.3 0.000107053 5.84906E-8 0.000106269 5.8276E-8 27.592 0.0330566
13146 1.02811E+8 56192.3 1.02811E+8 56192.3 0.00010753 5.87717E-8 0.000106738 5.85548E-8 27.5861 0.0330623
13147 1.02796E+8 56172.9 1.02796E+8 56172.9 0.000108146 5.90966E-8 0.000107359 5.88814E-8 27.5803 0.0330591
13148 1.02672E+8 56118.6 1.02672E+8 56118.6 0.00010865 5.93866E-8 0.000107847 5.91668E-8 27.5744 0.0330631
13149 1.02563E+8 56071.2 1.02563E+8 56071.2 0.000109174 5.96854E-8 0.000108369 5.94651E-8 27.5686 0.0330666
13150 1.02586E+8 56059 1.02586E+8 56059 0.00010984 6.0023E-8 0.000109034 5.98024E-8 27.5627 0.0330593
13151 1.02511E+8 56019.9 1.02511E+8 56019.9 0.000110404 6.03337E-8 0.000109598 6.01131E-8 27.5568 0.03306
13152 1.02393E+8 55968 1.02393E+8 55968 0.000110925 6.06323E-8 0.000110119 6.04116E-8 27.551 0.0330637
13153 1.02402E+8 55954.4 1.02402E+8 55954.4 0.000111587 6.09738E-8 0.000110763 6.07482E-8 27.5451 0.0330582
13154 1.02306E+8 55907 1.02306E+8 55907 0.000112139 6.12805E-8 0.000111317 6.10559E-8 27.5393 0.0330596
13155 1.02184E+8 55856.8 1.02184E+8 55856.8 0.000112663 6.15853E-8 0.000111826 6.13561E-8 27.5334 0.0330646
13156 1.02204E+8 55843.7 1.02204E+8 55843.7 0.000113348 6.19326E-8 0.000112508 6.17029E-8 27.5275 0.0330574
13157 1.02075E+8 55788.5 1.02075E+8 55788.5 0.00011387 6.22352E-8 0.000113038 6.20076E-8 27.5217 0.033062
13158 1.02025E+8 55758.1 1.02025E+8 55758.1 0.000114483 6.25669E-8 0.000113645 6.23376E-8 27.5158 0.0330611
13159 1.01901E+8 55704.7 1.01901E+8 55704.7 0.000115016 6.28744E-8 0.000114174 6.26439E-8 27.51 0.0330652
13160 1.01819E+8 55665.6 1.01819E+8 55665.6 0.000115599 6.31996E-8 0.00011476 6.297E-8 27.5041 0.033067
13161 1.01827E+8 55649.1 1.01827E+8 55649.1 0.000116287 6.35524E-8 0.000115436 6.33194E-8 27.4982 0.0330609
13162 1.01769E+8 55615.2 1.01769E+8 55615.2 0.000116905 6.38869E-8 0.00011605 6.36531E-8 27.4924 0.0330601
13163 1.01662E+8 55568 1.01662E+8 55568 0.000117468 6.4208E-8 0.000116617 6.3975E-8 27.4865 0.0330636
13164 1.01603E+8 55533.8 1.01603E+8 55533.8 0.00011809 6.45455E-8 0.000117229 6.43098E-8 27.4806 0.0330629
13165 1.01565E+8 55503.4 1.01565E+8 55503.4 0.00011874 6.48894E-8 0.000117873 6.46519E-8 27.4748 0.03306
13166 1.01529E+8 55474.6 1.01529E+8 55474.6 0.000119396 6.52371E-8 0.000118524 6.49983E-8 27.4689 0.0330572
13167 1.01369E+8 55413.8 1.01369E+8 55413.8 0.000119909 6.5549E-8 0.000119039 6.53107E-8 27.4631 0.0330653
13168 1.01436E+8 55414.2 1.01436E+8 55414.2 0.000120693 6.59344E-8 0.000119822 6.5696E-8 27.4572 0.0330544
13169 1.01271E+8 55350.6 1.01271E+8 55350.6 0.000121204 6.62459E-8 0.00012033 6.60066E-8 27.4513 0.0330624
13170 1.01213E+8 55316.2 1.01213E+8 55316.2 0.000121848 6.65941E-8 0.000120966 6.63529E-8 27.4455 0.0330616
13171 1.01153E+8 55281.4 1.01153E+8 55281.4 0.000122492 6.69436E-8 0.000121618 6.67045E-8 27.4396 0.0330609
13172 1.01121E+8 55254.7 1.01121E+8 55254.7 0.000123172 6.73042E-8 0.000122276 6.70589E-8 27.4338 0.0330582
13173 1.01078E+8 55226.7 1.01078E+8 55226.7 0.000123844 6.76655E-8 0.000122952 6.74214E-8 27.4279 0.0330568
13174 1.00966E+8 55175.8 1.00966E+8 55175.8 0.000124434 6.80009E-8 0.000123534 6.77545E-8 27.422 0.0330599
13175 1.00918E+8 55144 1.00918E+8 55144 0.000125105 6.8361E-8 0.000124201 6.81135E-8 27.4162 0.0330583
13176 1.00849E+8 55108.7 1.00849E+8 55108.7 0.000125755 6.8719E-8 0.000124845 6.84702E-8 27.4103 0.0330591
13177 1.00801E+8 55075.7 1.00801E+8 55075.7 0.000126434 6.90814E-8 0.000125523 6.88323E-8 27.4044 0.033057
13178 1.00635E+8 55011 1.00635E+8 55011 0.000126968 6.9406E-8 0.000126053 6.91558E-8 27.3986 0.0330649
13179 1.00616E+8 54990.7 1.00616E+8 54990.7 0.00012769 6.97882E-8 0.000126777 6.95383E-8 27.3927 0.0330619
13180 1.00552E+8 54953.7 1.00552E+8 54953.7 0.00012836 7.01512E-8 0.000127438 6.9899E-8 27.3869 0.0330612
13181 1.00476E+8 54914.2 1.00476E+8 54914.2 0.000129015 7.05127E-8 0.000128084 7.02579E-8 27.381 0.0330619
13182 1.00367E+8 54866.9 1.00367E+8 54866.9 0.000129634 7.08661E-8 0.000128707 7.06125E-8 27.3751 0.0330654
13183 1.00332E+8 54839.3 1.00332E+8 54839.3 0.000130351 7.12472E-8 0.000129408 7.09892E-8 27.3693 0.033063
13184 1.00308E+8 54813.2 1.00308E+8 54813.2 0.000131086 7.16319E-8 0.000130142 7.13735E-8 27.3634 0.033059
13185 1.00201E+8 54766 1.00201E+8 54766 0.000131716 7.19909E-8 0.00013077 7.1732E-8 27.3576 0.0330624
13186 1.00212E+8 54750.9 1.00212E+8 54750.9 0.000132504 7.23941E-8 0.000131549 7.21327E-8 27.3517 0.0330561
13187 1.00036E+8 54685.1 1.00036E+8 54685.1 0.000133049 7.27321E-8 0.000132103 7.24733E-8 27.3458 0.0330653
13188 9.99545E+7 54643.2 9.99545E+7 54643.2 0.000133722 7.31037E-8 0.000132757 7.28395E-8 27.34 0.0330661
13189 9.98573E+7 54598.2 9.98573E+7 54598.2 0.000134377 7.34729E-8 0.00013342 7.32107E-8 27.3341 0.0330685
13190 9.99858E+7 54616.5 9.99858E+7 54616.5 0.000135341 7.39293E-8 0.000134369 7.36632E-8 27.3283 0.0330528
13191 9.97737E+7 54540.3 9.97737E+7 54540.3 0.000135848 7.42602E-8 0.000134873 7.39934E-8 27.3224 0.0330648
13192 9.97836E+7 54525.3 9.97836E+7 54525.3 0.00013666 7.46762E-8 0.000135683 7.44088E-8 27.3165 0.0330586
13193 9.96635E+7 54473.8 9.96635E+7 54473.8 0.000137298 7.50443E-8 0.000136309 7.47735E-8 27.3107 0.0330629
13194 9.96446E+7 54450.6 9.96446E+7 54450.6 0.000138079 7.54534E-8 0.000137099 7.51852E-8 27.3048 0.033059
13195 9.96546E+7 54435.8 9.96546E+7 54435.8 0.000138905 7.58763E-8 0.000137924 7.5608E-8 27.2989 0.0330529
13196 9.95048E+7 54377 9.95048E+7 54377 0.000139511 7.62397E-8 0.00013853 7.59714E-8 27.2931 0.0330599
13197 9.94342E+7 54337.7 9.94342E+7 54337.7 0.000140232 7.66326E-8 0.00013921 7.63531E-8 27.2872 0.0330596
13198 9.94146E+7 54317.1 9.94146E+7 54317.1 0.000141028 7.70539E-8 0.000140026 7.67798E-8 27.2814 0.0330567
13199 9.92346E+7 54249.4 9.92346E+7 54249.4 0.0001416 7.74101E-8 0.000140596 7.7135E-8 27.2755 0.033066
13200 9.93104E+7 54252.3 9.93104E+7 54252.3 0.000142542 7.78696E-8 0.000141521 7.75901E-8 27.2696 0.0330543
